Wavelength [nm]	Wavenumbers [1/cm]	trans_azobenzene_epsilons
250.000	40000.00	2377
250.100	39984.01	2376
250.200	39968.03	2373
250.300	39952.06	2372
250.400	39936.10	2372
250.500	39920.16	2369
250.600	39904.23	2367
250.700	39888.31	2368
250.800	39872.41	2367
250.900	39856.52	2365
251.000	39840.64	2364
251.100	39824.77	2365
251.200	39808.92	2364
251.300	39793.08	2366
251.400	39777.25	2369
251.500	39761.43	2368
251.600	39745.63	2366
251.700	39729.84	2369
251.800	39714.06	2370
251.900	39698.29	2371
252.000	39682.54	2374
252.100	39666.80	2376
252.200	39651.07	2376
252.300	39635.35	2378
252.400	39619.65	2380
252.500	39603.96	2383
252.600	39588.28	2385
252.700	39572.62	2387
252.800	39556.96	2391
252.900	39541.32	2390
253.000	39525.69	2396
253.100	39510.08	2399
253.200	39494.47	2402
253.300	39478.88	2407
253.400	39463.30	2411
253.500	39447.73	2413
253.600	39432.18	2416
253.700	39416.63	2421
253.800	39401.10	2426
253.900	39385.58	2430
254.000	39370.08	2435
254.100	39354.58	2440
254.200	39339.10	2442
254.300	39323.63	2447
254.400	39308.18	2454
254.500	39292.73	2459
254.600	39277.30	2463
254.700	39261.88	2470
254.800	39246.47	2476
254.900	39231.07	2479
255.000	39215.69	2485
255.100	39200.31	2493
255.200	39184.95	2497
255.300	39169.60	2505
255.400	39154.27	2512
255.500	39138.94	2519
255.600	39123.63	2524
255.700	39108.33	2531
255.800	39093.04	2537
255.900	39077.76	2543
256.000	39062.50	2553
256.100	39047.25	2560
256.200	39032.01	2565
256.300	39016.78	2574
256.400	39001.56	2583
256.500	38986.35	2590
256.600	38971.16	2597
256.700	38955.98	2605
256.800	38940.81	2616
256.900	38925.65	2622
257.000	38910.51	2630
257.100	38895.37	2640
257.200	38880.25	2646
257.300	38865.14	2657
257.400	38850.04	2665
257.500	38834.95	2674
257.600	38819.88	2682
257.700	38804.81	2692
257.800	38789.76	2701
257.900	38774.72	2710
258.000	38759.69	2720
258.100	38744.67	2732
258.200	38729.67	2740
258.300	38714.67	2750
258.400	38699.69	2760
258.500	38684.72	2770
258.600	38669.76	2780
258.700	38654.81	2791
258.800	38639.88	2803
258.900	38624.95	2811
259.000	38610.04	2822
259.100	38595.14	2834
259.200	38580.25	2846
259.300	38565.37	2857
259.400	38550.50	2870
259.500	38535.65	2881
259.600	38520.80	2892
259.700	38505.97	2904
259.800	38491.15	2914
259.900	38476.34	2926
260.000	38461.54	2939
260.100	38446.75	2953
260.200	38431.98	2965
260.300	38417.21	2976
260.400	38402.46	2991
260.500	38387.72	3002
260.600	38372.99	3015
260.700	38358.27	3030
260.800	38343.56	3044
260.900	38328.86	3056
261.000	38314.18	3070
261.100	38299.50	3085
261.200	38284.84	3097
261.300	38270.19	3110
261.400	38255.55	3127
261.500	38240.92	3140
261.600	38226.30	3152
261.700	38211.69	3166
261.800	38197.10	3182
261.900	38182.51	3197
262.000	38167.94	3211
262.100	38153.38	3227
262.200	38138.83	3240
262.300	38124.29	3256
262.400	38109.76	3273
262.500	38095.24	3288
262.600	38080.73	3300
262.700	38066.24	3318
262.800	38051.75	3333
262.900	38037.28	3348
263.000	38022.81	3363
263.100	38008.36	3383
263.200	37993.92	3396
263.300	37979.49	3416
263.400	37965.07	3433
263.500	37950.66	3449
263.600	37936.27	3465
263.700	37921.88	3483
263.800	37907.51	3499
263.900	37893.14	3513
264.000	37878.79	3533
264.100	37864.45	3552
264.200	37850.11	3568
264.300	37835.79	3586
264.400	37821.48	3607
264.500	37807.18	3624
264.600	37792.89	3643
264.700	37778.62	3661
264.800	37764.35	3680
264.900	37750.09	3696
265.000	37735.85	3716
265.100	37721.61	3736
265.200	37707.39	3751
265.300	37693.18	3772
265.400	37678.98	3793
265.500	37664.78	3812
265.600	37650.60	3829
265.700	37636.43	3852
265.800	37622.27	3870
265.900	37608.12	3889
266.000	37593.98	3910
266.100	37579.86	3929
266.200	37565.74	3947
266.300	37551.63	3969
266.400	37537.54	3989
266.500	37523.45	4007
266.600	37509.38	4029
266.700	37495.31	4052
266.800	37481.26	4073
266.900	37467.22	4092
267.000	37453.18	4118
267.100	37439.16	4138
267.200	37425.15	4160
267.300	37411.15	4185
267.400	37397.16	4208
267.500	37383.18	4227
267.600	37369.21	4252
267.700	37355.25	4274
267.800	37341.30	4293
267.900	37327.36	4315
268.000	37313.43	4340
268.100	37299.52	4363
268.200	37285.61	4383
268.300	37271.71	4408
268.400	37257.82	4433
268.500	37243.95	4456
268.600	37230.08	4480
268.700	37216.23	4507
268.800	37202.38	4526
268.900	37188.55	4554
269.000	37174.72	4579
269.100	37160.91	4601
269.200	37147.10	4623
269.300	37133.31	4650
269.400	37119.52	4675
269.500	37105.75	4696
269.600	37091.99	4723
269.700	37078.24	4750
269.800	37064.49	4775
269.900	37050.76	4800
270.000	37037.04	4827
270.100	37023.32	4849
270.200	37009.62	4877
270.300	36995.93	4902
270.400	36982.25	4929
270.500	36968.58	4953
270.600	36954.92	4980
270.700	36941.26	5009
270.800	36927.62	5031
270.900	36913.99	5060
271.000	36900.37	5086
271.100	36886.76	5114
271.200	36873.16	5141
271.300	36859.57	5170
271.400	36845.98	5199
271.500	36832.41	5226
271.600	36818.85	5255
271.700	36805.30	5281
271.800	36791.76	5309
271.900	36778.23	5337
272.000	36764.71	5367
272.100	36751.19	5394
272.200	36737.69	5424
272.300	36724.20	5450
272.400	36710.72	5482
272.500	36697.25	5510
272.600	36683.79	5540
272.700	36670.33	5570
272.800	36656.89	5602
272.900	36643.46	5629
273.000	36630.04	5659
273.100	36616.62	5688
273.200	36603.22	5719
273.300	36589.83	5751
273.400	36576.44	5779
273.500	36563.07	5811
273.600	36549.71	5840
273.700	36536.35	5872
273.800	36523.01	5903
273.900	36509.68	5936
274.000	36496.35	5966
274.100	36483.04	5999
274.200	36469.73	6030
274.300	36456.43	6062
274.400	36443.15	6093
274.500	36429.87	6126
274.600	36416.61	6157
274.700	36403.35	6187
274.800	36390.10	6223
274.900	36376.86	6254
275.000	36363.64	6291
275.100	36350.42	6322
275.200	36337.21	6355
275.300	36324.01	6388
275.400	36310.82	6425
275.500	36297.64	6457
275.600	36284.47	6489
275.700	36271.31	6524
275.800	36258.16	6557
275.900	36245.02	6591
276.000	36231.88	6625
276.100	36218.76	6660
276.200	36205.65	6690
276.300	36192.54	6728
276.400	36179.45	6763
276.500	36166.37	6798
276.600	36153.29	6830
276.700	36140.22	6872
276.800	36127.17	6905
276.900	36114.12	6939
277.000	36101.08	6976
277.100	36088.05	7013
277.200	36075.04	7050
277.300	36062.03	7083
277.400	36049.03	7121
277.500	36036.04	7152
277.600	36023.05	7190
277.700	36010.08	7228
277.800	35997.12	7266
277.900	35984.17	7302
278.000	35971.22	7341
278.100	35958.29	7377
278.200	35945.36	7414
278.300	35932.45	7454
278.400	35919.54	7489
278.500	35906.64	7529
278.600	35893.75	7565
278.700	35880.88	7602
278.800	35868.01	7639
278.900	35855.15	7678
279.000	35842.29	7717
279.100	35829.45	7758
279.200	35816.62	7793
279.300	35803.80	7838
279.400	35790.98	7877
279.500	35778.18	7914
279.600	35765.38	7953
279.700	35752.59	7992
279.800	35739.81	8032
279.900	35727.05	8071
280.000	35714.29	8112
280.100	35701.54	8149
280.200	35688.79	8188
280.300	35676.06	8228
280.400	35663.34	8273
280.500	35650.62	8311
280.600	35637.92	8356
280.700	35625.22	8395
280.800	35612.54	8436
280.900	35599.86	8474
281.000	35587.19	8517
281.100	35574.53	8557
281.200	35561.88	8595
281.300	35549.24	8641
281.400	35536.60	8681
281.500	35523.98	8721
281.600	35511.36	8763
281.700	35498.76	8810
281.800	35486.16	8846
281.900	35473.57	8892
282.000	35460.99	8935
282.100	35448.42	8977
282.200	35435.86	9017
282.300	35423.31	9061
282.400	35410.76	9103
282.500	35398.23	9142
282.600	35385.70	9190
282.700	35373.19	9232
282.800	35360.68	9273
282.900	35348.18	9316
283.000	35335.69	9364
283.100	35323.21	9407
283.200	35310.73	9454
283.300	35298.27	9498
283.400	35285.82	9542
283.500	35273.37	9585
283.600	35260.93	9632
283.700	35248.50	9673
283.800	35236.08	9717
283.900	35223.67	9760
284.000	35211.27	9808
284.100	35198.87	9853
284.200	35186.49	9895
284.300	35174.11	9944
284.400	35161.74	9988
284.500	35149.38	1.004E4
284.600	35137.03	1.008E4
284.700	35124.69	1.013E4
284.800	35112.36	1.017E4
284.900	35100.04	1.022E4
285.000	35087.72	1.026E4
285.100	35075.41	1.031E4
285.200	35063.11	1.035E4
285.300	35050.82	1.04E4
285.400	35038.54	1.045E4
285.500	35026.27	1.049E4
285.600	35014.01	1.054E4
285.700	35001.75	1.059E4
285.800	34989.50	1.064E4
285.900	34977.26	1.068E4
286.000	34965.03	1.073E4
286.100	34952.81	1.078E4
286.200	34940.60	1.083E4
286.300	34928.40	1.088E4
286.400	34916.20	1.092E4
286.500	34904.01	1.097E4
286.600	34891.84	1.101E4
286.700	34879.67	1.107E4
286.800	34867.50	1.111E4
286.900	34855.35	1.116E4
287.000	34843.21	1.121E4
287.100	34831.07	1.126E4
287.200	34818.94	1.131E4
287.300	34806.82	1.136E4
287.400	34794.71	1.14E4
287.500	34782.61	1.145E4
287.600	34770.51	1.15E4
287.700	34758.43	1.155E4
287.800	34746.35	1.16E4
287.900	34734.28	1.164E4
288.000	34722.22	1.17E4
288.100	34710.17	1.174E4
288.200	34698.13	1.18E4
288.300	34686.09	1.184E4
288.400	34674.06	1.19E4
288.500	34662.05	1.194E4
288.600	34650.03	1.2E4
288.700	34638.03	1.204E4
288.800	34626.04	1.209E4
288.900	34614.05	1.214E4
289.000	34602.08	1.219E4
289.100	34590.11	1.224E4
289.200	34578.15	1.228E4
289.300	34566.19	1.234E4
289.400	34554.25	1.238E4
289.500	34542.31	1.243E4
289.600	34530.39	1.248E4
289.700	34518.47	1.254E4
289.800	34506.56	1.258E4
289.900	34494.65	1.263E4
290.000	34482.76	1.268E4
290.100	34470.87	1.273E4
290.200	34458.99	1.278E4
290.300	34447.12	1.283E4
290.400	34435.26	1.288E4
290.500	34423.41	1.293E4
290.600	34411.56	1.298E4
290.700	34399.72	1.303E4
290.800	34387.90	1.308E4
290.900	34376.07	1.313E4
291.000	34364.26	1.318E4
291.100	34352.46	1.323E4
291.200	34340.66	1.328E4
291.300	34328.87	1.333E4
291.400	34317.09	1.339E4
291.500	34305.32	1.343E4
291.600	34293.55	1.347E4
291.700	34281.80	1.353E4
291.800	34270.05	1.358E4
291.900	34258.31	1.363E4
292.000	34246.58	1.368E4
292.100	34234.85	1.373E4
292.200	34223.13	1.378E4
292.300	34211.43	1.383E4
292.400	34199.73	1.388E4
292.500	34188.03	1.393E4
292.600	34176.35	1.398E4
292.700	34164.67	1.403E4
292.800	34153.01	1.408E4
292.900	34141.35	1.412E4
293.000	34129.69	1.418E4
293.100	34118.05	1.423E4
293.200	34106.41	1.428E4
293.300	34094.78	1.432E4
293.400	34083.16	1.438E4
293.500	34071.55	1.442E4
293.600	34059.95	1.448E4
293.700	34048.35	1.452E4
293.800	34036.76	1.458E4
293.900	34025.18	1.463E4
294.000	34013.61	1.468E4
294.100	34002.04	1.473E4
294.200	33990.48	1.478E4
294.300	33978.93	1.483E4
294.400	33967.39	1.488E4
294.500	33955.86	1.493E4
294.600	33944.33	1.498E4
294.700	33932.81	1.503E4
294.800	33921.30	1.508E4
294.900	33909.80	1.513E4
295.000	33898.31	1.518E4
295.100	33886.82	1.523E4
295.200	33875.34	1.528E4
295.300	33863.87	1.534E4
295.400	33852.40	1.538E4
295.500	33840.95	1.543E4
295.600	33829.50	1.549E4
295.700	33818.06	1.554E4
295.800	33806.63	1.559E4
295.900	33795.20	1.564E4
296.000	33783.78	1.569E4
296.100	33772.37	1.573E4
296.200	33760.97	1.579E4
296.300	33749.58	1.584E4
296.400	33738.19	1.589E4
296.500	33726.81	1.594E4
296.600	33715.44	1.6E4
296.700	33704.08	1.605E4
296.800	33692.72	1.609E4
296.900	33681.37	1.615E4
297.000	33670.03	1.62E4
297.100	33658.70	1.625E4
297.200	33647.38	1.629E4
297.300	33636.06	1.635E4
297.400	33624.75	1.64E4
297.500	33613.45	1.645E4
297.600	33602.15	1.65E4
297.700	33590.86	1.656E4
297.800	33579.58	1.66E4
297.900	33568.31	1.666E4
298.000	33557.05	1.671E4
298.100	33545.79	1.676E4
298.200	33534.54	1.681E4
298.300	33523.30	1.686E4
298.400	33512.06	1.692E4
298.500	33500.84	1.696E4
298.600	33489.62	1.701E4
298.700	33478.41	1.706E4
298.800	33467.20	1.711E4
298.900	33456.01	1.717E4
299.000	33444.82	1.722E4
299.100	33433.63	1.727E4
299.200	33422.46	1.733E4
299.300	33411.29	1.738E4
299.400	33400.13	1.742E4
299.500	33388.98	1.746E4
299.600	33377.84	1.752E4
299.700	33366.70	1.757E4
299.800	33355.57	1.762E4
299.900	33344.45	1.767E4
300.000	33333.33	1.772E4
300.100	33322.23	1.777E4
300.200	33311.13	1.782E4
300.300	33300.03	1.787E4
300.400	33288.95	1.792E4
300.500	33277.87	1.797E4
300.600	33266.80	1.801E4
300.700	33255.74	1.807E4
300.800	33244.68	1.811E4
300.900	33233.63	1.816E4
301.000	33222.59	1.82E4
301.100	33211.56	1.825E4
301.200	33200.53	1.83E4
301.300	33189.51	1.834E4
301.400	33178.50	1.839E4
301.500	33167.50	1.844E4
301.600	33156.50	1.849E4
301.700	33145.51	1.854E4
301.800	33134.53	1.858E4
301.900	33123.55	1.863E4
302.000	33112.58	1.867E4
302.100	33101.62	1.872E4
302.200	33090.67	1.876E4
302.300	33079.72	1.881E4
302.400	33068.78	1.885E4
302.500	33057.85	1.89E4
302.600	33046.93	1.894E4
302.700	33036.01	1.898E4
302.800	33025.10	1.902E4
302.900	33014.20	1.906E4
303.000	33003.30	1.911E4
303.100	32992.41	1.915E4
303.200	32981.53	1.92E4
303.300	32970.66	1.925E4
303.400	32959.79	1.928E4
303.500	32948.93	1.932E4
303.600	32938.08	1.936E4
303.700	32927.23	1.941E4
303.800	32916.39	1.944E4
303.900	32905.56	1.948E4
304.000	32894.74	1.953E4
304.100	32883.92	1.956E4
304.200	32873.11	1.96E4
304.300	32862.31	1.964E4
304.400	32851.51	1.969E4
304.500	32840.72	1.972E4
304.600	32829.94	1.977E4
304.700	32819.17	1.98E4
304.800	32808.40	1.983E4
304.900	32797.64	1.987E4
305.000	32786.89	1.991E4
305.100	32776.14	1.994E4
305.200	32765.40	1.999E4
305.300	32754.67	2.002E4
305.400	32743.94	2.006E4
305.500	32733.22	2.01E4
305.600	32722.51	2.013E4
305.700	32711.81	2.017E4
305.800	32701.11	2.02E4
305.900	32690.42	2.024E4
306.000	32679.74	2.027E4
306.100	32669.06	2.031E4
306.200	32658.39	2.033E4
306.300	32647.73	2.037E4
306.400	32637.08	2.041E4
306.500	32626.43	2.044E4
306.600	32615.79	2.048E4
306.700	32605.15	2.05E4
306.800	32594.52	2.054E4
306.900	32583.90	2.057E4
307.000	32573.29	2.06E4
307.100	32562.68	2.064E4
307.200	32552.08	2.067E4
307.300	32541.49	2.071E4
307.400	32530.90	2.074E4
307.500	32520.33	2.077E4
307.600	32509.75	2.081E4
307.700	32499.19	2.084E4
307.800	32488.63	2.086E4
307.900	32478.08	2.09E4
308.000	32467.53	2.093E4
308.100	32456.99	2.096E4
308.200	32446.46	2.099E4
308.300	32435.94	2.102E4
308.400	32425.42	2.106E4
308.500	32414.91	2.109E4
308.600	32404.41	2.112E4
308.700	32393.91	2.116E4
308.800	32383.42	2.119E4
308.900	32372.94	2.121E4
309.000	32362.46	2.125E4
309.100	32351.99	2.128E4
309.200	32341.53	2.131E4
309.300	32331.07	2.134E4
309.400	32320.62	2.137E4
309.500	32310.18	2.14E4
309.600	32299.74	2.144E4
309.700	32289.31	2.146E4
309.800	32278.89	2.149E4
309.900	32268.47	2.152E4
310.000	32258.06	2.156E4
310.100	32247.66	2.159E4
310.200	32237.27	2.161E4
310.300	32226.88	2.165E4
310.400	32216.49	2.167E4
310.500	32206.12	2.17E4
310.600	32195.75	2.174E4
310.700	32185.39	2.177E4
310.800	32175.03	2.178E4
310.900	32164.68	2.182E4
311.000	32154.34	2.186E4
311.100	32144.01	2.189E4
311.200	32133.68	2.192E4
311.300	32123.35	2.195E4
311.400	32113.04	2.198E4
311.500	32102.73	2.2E4
311.600	32092.43	2.204E4
311.700	32082.13	2.206E4
311.800	32071.84	2.208E4
311.900	32061.56	2.212E4
312.000	32051.28	2.214E4
312.100	32041.01	2.217E4
312.200	32030.75	2.22E4
312.300	32020.49	2.223E4
312.400	32010.24	2.225E4
312.500	32000.00	2.227E4
312.600	31989.76	2.231E4
312.700	31979.53	2.233E4
312.800	31969.31	2.236E4
312.900	31959.09	2.239E4
313.000	31948.88	2.24E4
313.100	31938.68	2.243E4
313.200	31928.48	2.246E4
313.300	31918.29	2.248E4
313.400	31908.10	2.25E4
313.500	31897.93	2.251E4
313.600	31887.76	2.254E4
313.700	31877.59	2.258E4
313.800	31867.43	2.259E4
313.900	31857.28	2.262E4
314.000	31847.13	2.263E4
314.100	31836.99	2.265E4
314.200	31826.86	2.267E4
314.300	31816.74	2.269E4
314.400	31806.62	2.271E4
314.500	31796.50	2.272E4
314.600	31786.40	2.275E4
314.700	31776.29	2.276E4
314.800	31766.20	2.278E4
314.900	31756.11	2.28E4
315.000	31746.03	2.281E4
315.100	31735.96	2.281E4
315.200	31725.89	2.284E4
315.300	31715.83	2.286E4
315.400	31705.77	2.286E4
315.500	31695.72	2.287E4
315.600	31685.68	2.287E4
315.700	31675.64	2.289E4
315.800	31665.61	2.289E4
315.900	31655.59	2.292E4
316.000	31645.57	2.291E4
316.100	31635.56	2.292E4
316.200	31625.55	2.293E4
316.300	31615.55	2.293E4
316.400	31605.56	2.293E4
316.500	31595.58	2.293E4
316.600	31585.60	2.294E4
316.700	31575.62	2.294E4
316.800	31565.66	2.293E4
316.900	31555.70	2.295E4
317.000	31545.74	2.295E4
317.100	31535.79	2.294E4
317.200	31525.85	2.293E4
317.300	31515.92	2.294E4
317.400	31505.99	2.293E4
317.500	31496.06	2.292E4
317.600	31486.15	2.292E4
317.700	31476.24	2.29E4
317.800	31466.33	2.29E4
317.900	31456.43	2.29E4
318.000	31446.54	2.288E4
318.100	31436.66	2.287E4
318.200	31426.78	2.287E4
318.300	31416.90	2.286E4
318.400	31407.04	2.285E4
318.500	31397.17	2.283E4
318.600	31387.32	2.281E4
318.700	31377.47	2.28E4
318.800	31367.63	2.278E4
318.900	31357.79	2.277E4
319.000	31347.96	2.276E4
319.100	31338.14	2.274E4
319.200	31328.32	2.272E4
319.300	31318.51	2.27E4
319.400	31308.70	2.268E4
319.500	31298.90	2.267E4
319.600	31289.11	2.266E4
319.700	31279.32	2.263E4
319.800	31269.54	2.26E4
319.900	31259.77	2.258E4
320.000	31250.00	2.257E4
320.100	31240.24	2.254E4
320.200	31230.48	2.252E4
320.300	31220.73	2.25E4
320.400	31210.99	2.247E4
320.500	31201.25	2.245E4
320.600	31191.52	2.243E4
320.700	31181.79	2.24E4
320.800	31172.07	2.238E4
320.900	31162.36	2.236E4
321.000	31152.65	2.232E4
321.100	31142.95	2.231E4
321.200	31133.25	2.229E4
321.300	31123.56	2.225E4
321.400	31113.88	2.222E4
321.500	31104.20	2.22E4
321.600	31094.53	2.218E4
321.700	31084.86	2.215E4
321.800	31075.20	2.212E4
321.900	31065.55	2.21E4
322.000	31055.90	2.207E4
322.100	31046.26	2.205E4
322.200	31036.62	2.203E4
322.300	31026.99	2.199E4
322.400	31017.37	2.197E4
322.500	31007.75	2.195E4
322.600	30998.14	2.193E4
322.700	30988.53	2.19E4
322.800	30978.93	2.187E4
322.900	30969.34	2.185E4
323.000	30959.75	2.182E4
323.100	30950.17	2.18E4
323.200	30940.59	2.178E4
323.300	30931.02	2.174E4
323.400	30921.46	2.173E4
323.500	30911.90	2.171E4
323.600	30902.35	2.169E4
323.700	30892.80	2.166E4
323.800	30883.26	2.164E4
323.900	30873.73	2.161E4
324.000	30864.20	2.16E4
324.100	30854.67	2.157E4
324.200	30845.16	2.156E4
324.300	30835.65	2.152E4
324.400	30826.14	2.15E4
324.500	30816.64	2.148E4
324.600	30807.15	2.145E4
324.700	30797.66	2.144E4
324.800	30788.18	2.142E4
324.900	30778.70	2.141E4
325.000	30769.23	2.138E4
325.100	30759.77	2.135E4
325.200	30750.31	2.134E4
325.300	30740.85	2.132E4
325.400	30731.41	2.13E4
325.500	30721.97	2.128E4
325.600	30712.53	2.126E4
325.700	30703.10	2.123E4
325.800	30693.68	2.122E4
325.900	30684.26	2.121E4
326.000	30674.85	2.119E4
326.100	30665.44	2.116E4
326.200	30656.04	2.115E4
326.300	30646.64	2.113E4
326.400	30637.25	2.111E4
326.500	30627.87	2.11E4
326.600	30618.49	2.107E4
326.700	30609.12	2.105E4
326.800	30599.76	2.103E4
326.900	30590.39	2.102E4
327.000	30581.04	2.1E4
327.100	30571.69	2.098E4
327.200	30562.35	2.096E4
327.300	30553.01	2.093E4
327.400	30543.68	2.092E4
327.500	30534.35	2.089E4
327.600	30525.03	2.087E4
327.700	30515.72	2.085E4
327.800	30506.41	2.083E4
327.900	30497.10	2.081E4
328.000	30487.80	2.079E4
328.100	30478.51	2.075E4
328.200	30469.23	2.073E4
328.300	30459.95	2.071E4
328.400	30450.67	2.068E4
328.500	30441.40	2.066E4
328.600	30432.14	2.062E4
328.700	30422.88	2.061E4
328.800	30413.63	2.057E4
328.900	30404.38	2.054E4
329.000	30395.14	2.052E4
329.100	30385.90	2.049E4
329.200	30376.67	2.045E4
329.300	30367.45	2.042E4
329.400	30358.23	2.038E4
329.500	30349.01	2.034E4
329.600	30339.81	2.031E4
329.700	30330.60	2.028E4
329.800	30321.41	2.023E4
329.900	30312.22	2.02E4
330.000	30303.03	2.016E4
330.100	30293.85	2.011E4
330.200	30284.68	2.008E4
330.300	30275.51	2.004E4
330.400	30266.34	1.999E4
330.500	30257.19	1.994E4
330.600	30248.03	1.989E4
330.700	30238.89	1.985E4
330.800	30229.75	1.98E4
330.900	30220.61	1.974E4
331.000	30211.48	1.969E4
331.100	30202.36	1.964E4
331.200	30193.24	1.958E4
331.300	30184.12	1.953E4
331.400	30175.02	1.947E4
331.500	30165.91	1.942E4
331.600	30156.82	1.936E4
331.700	30147.72	1.93E4
331.800	30138.64	1.923E4
331.900	30129.56	1.917E4
332.000	30120.48	1.91E4
332.100	30111.41	1.904E4
332.200	30102.35	1.896E4
332.300	30093.29	1.89E4
332.400	30084.24	1.883E4
332.500	30075.19	1.876E4
332.600	30066.15	1.869E4
332.700	30057.11	1.862E4
332.800	30048.08	1.854E4
332.900	30039.05	1.847E4
333.000	30030.03	1.839E4
333.100	30021.01	1.832E4
333.200	30012.00	1.823E4
333.300	30003.00	1.816E4
333.400	29994.00	1.807E4
333.500	29985.01	1.799E4
333.600	29976.02	1.791E4
333.700	29967.04	1.783E4
333.800	29958.06	1.773E4
333.900	29949.09	1.766E4
334.000	29940.12	1.758E4
