Wavelength [nm]	Wavenumbers [1/cm]	LED340nm_normalisedarea
175.764	56894.47	226.9
176.337	56709.57	252.5
176.910	56525.87	231.2
177.483	56343.35	264.9
178.056	56162.01	242.1
178.629	55981.83	236.3
179.202	55802.81	245.2
179.776	55624.92	248.8
180.349	55448.17	257.6
180.922	55272.54	247.7
181.495	55098.01	240.2
182.068	54924.58	255.7
182.641	54752.25	250.4
183.214	54580.99	229.5
183.787	54410.80	234.3
184.360	54241.66	236.5
184.933	54073.58	253.1
185.506	53906.53	274.6
186.079	53740.51	258.3
186.652	53575.51	233.5
187.226	53411.52	245.6
187.799	53248.54	261.5
188.372	53086.54	259.4
188.945	52925.53	243.3
189.518	52765.49	226.9
190.091	52606.41	241.8
190.664	52448.30	254
191.237	52291.12	247
191.810	52134.89	241.1
192.383	51979.59	254.6
192.956	51825.21	252.2
193.529	51671.75	254.7
194.102	51519.19	270.1
194.675	51367.53	259.3
195.249	51216.76	236.5
195.822	51066.88	232.2
196.395	50917.87	236.6
196.968	50769.72	250.1
197.541	50622.43	232.7
198.114	50476.00	243.7
198.687	50330.41	223.1
199.260	50185.66	256.7
199.833	50041.74	226.5
200.406	49898.64	249.5
200.979	49756.36	242.8
201.552	49614.89	243.8
202.125	49474.22	260.8
202.699	49334.34	272.2
203.272	49195.26	244.9
203.845	49056.95	227.5
204.418	48919.42	243.9
204.991	48782.66	243.8
205.564	48646.67	242.3
206.137	48511.42	256.2
206.710	48376.93	263.1
207.283	48243.19	246.3
207.856	48110.18	219.9
208.429	47977.90	213.5
209.002	47846.34	228.4
209.575	47715.51	235.4
210.149	47585.39	237.8
210.722	47455.98	249.3
211.295	47327.27	215.7
211.868	47199.25	219.9
212.441	47071.93	252.9
213.014	46945.29	208.3
213.587	46819.33	236.2
214.160	46694.05	217
214.733	46569.43	217.9
215.306	46445.48	221
215.879	46322.18	202.6
216.452	46199.54	222.3
217.025	46077.55	226.3
217.599	45956.19	225.9
218.172	45835.48	209.6
218.745	45715.40	208.9
219.318	45595.95	213.2
219.891	45477.11	199.9
220.464	45358.90	200
221.037	45241.30	205.8
221.610	45124.31	193.7
222.183	45007.92	194
222.756	44892.13	192.6
223.329	44776.93	208.4
223.902	44662.33	208.7
224.475	44548.31	214.9
225.049	44434.87	204.6
225.622	44322.00	234.7
226.195	44209.71	212.6
226.768	44097.98	201.5
227.341	43986.82	190.8
227.914	43876.22	215.4
228.487	43766.17	202.2
229.060	43656.68	201.4
229.633	43547.73	210.5
230.206	43439.32	210.9
230.779	43331.45	210.1
231.352	43224.11	198.3
231.925	43117.31	187.4
232.498	43011.03	199.7
233.072	42905.28	190.9
233.645	42800.04	178.3
234.218	42695.32	197.4
234.791	42591.11	184
235.364	42487.41	184.4
235.937	42384.21	211.1
236.510	42281.51	216
237.083	42179.30	195.5
237.656	42077.59	207.5
238.229	41976.37	186.7
238.802	41875.64	186.5
239.375	41775.39	186.6
239.948	41675.61	196.1
240.522	41576.32	211.1
241.095	41477.49	201.8
241.668	41379.13	176.4
242.241	41281.24	207.1
242.814	41183.81	206.7
243.387	41086.84	220.5
243.960	40990.33	217.7
244.533	40894.26	220.7
245.106	40798.65	212.6
245.679	40703.48	206
246.252	40608.76	216.4
246.825	40514.47	210.2
247.398	40420.62	204.8
247.972	40327.21	218.6
248.545	40234.23	213.2
249.118	40141.67	218.4
249.691	40049.54	222.1
250.264	39957.83	215.2
250.837	39866.54	212.2
251.410	39775.67	206.2
251.983	39685.21	186.5
252.556	39595.16	202.1
253.129	39505.52	187.8
253.702	39416.28	211.2
254.275	39327.44	199.7
254.848	39239.01	205.1
255.422	39150.97	207.2
255.995	39063.33	196.3
256.568	38976.07	214.3
257.141	38889.21	225.2
257.714	38802.73	220.8
258.287	38716.64	196.3
258.860	38630.93	207.1
259.433	38545.59	222
260.006	38460.63	207.9
260.579	38376.05	208.5
261.152	38291.84	217.5
261.725	38207.99	218.8
262.298	38124.51	224.9
262.871	38041.40	210.2
263.445	37958.65	202.8
264.018	37876.26	221.6
264.591	37794.22	193
265.164	37712.54	185.9
265.737	37631.21	194.6
266.310	37550.23	196.3
266.883	37469.60	211.2
267.456	37389.31	213
268.029	37309.37	200.6
268.602	37229.77	207.5
269.175	37150.51	215.9
269.748	37071.58	206
270.321	36992.99	202.8
270.895	36914.73	208.2
271.468	36836.80	205.2
272.041	36759.20	218.1
272.614	36681.93	213.8
273.187	36604.98	208.4
273.760	36528.35	214.7
274.333	36452.05	216
274.906	36376.06	213.1
275.479	36300.39	209.1
276.052	36225.03	210
276.625	36149.98	206.5
277.198	36075.25	217.7
277.771	36000.82	213.7
278.345	35926.70	205.8
278.918	35852.88	191.7
279.491	35779.37	206.8
280.064	35706.15	189.8
280.637	35633.24	185.3
281.210	35560.62	219.3
281.783	35488.30	219.9
282.356	35416.27	200.5
282.929	35344.54	205.1
283.502	35273.09	224.7
284.075	35201.93	227.5
284.648	35131.06	214.6
285.221	35060.48	208.1
285.795	34990.17	212.2
286.368	34920.15	205.5
286.941	34850.41	209.2
287.514	34780.95	212
288.087	34711.76	214.8
288.660	34642.84	225
289.233	34574.20	225.1
289.806	34505.84	222.6
290.379	34437.74	225.2
290.952	34369.91	223.2
291.525	34302.34	218
292.098	34235.04	207.2
292.671	34168.01	228.5
293.245	34101.24	220.4
293.818	34034.72	221.4
294.391	33968.47	185.3
294.964	33902.47	224.6
295.537	33836.73	211.9
296.110	33771.25	207.6
296.683	33706.01	211
297.256	33641.03	223.9
297.829	33576.30	221.7
298.402	33511.82	225.9
298.975	33447.58	203.9
299.548	33383.59	207
300.121	33319.85	227.3
300.694	33256.35	247.3
301.268	33193.09	229
301.841	33130.06	207.3
302.414	33067.28	214.5
302.987	33004.74	223.8
303.560	32942.43	223.5
304.133	32880.36	224.5
304.706	32818.52	225.7
305.279	32756.91	229
305.852	32695.53	229.9
306.425	32634.39	225.5
306.998	32573.47	242.5
307.571	32512.78	245.4
308.144	32452.31	242.8
308.718	32392.07	247.1
309.291	32332.05	254.8
309.864	32272.25	229.3
310.437	32212.68	288.5
311.010	32153.32	257
311.583	32094.18	260.4
312.156	32035.26	256.6
312.729	31976.56	275.3
313.302	31918.07	264.4
313.875	31859.79	267.3
314.448	31801.73	262
315.021	31743.88	287.3
315.594	31686.23	275.7
316.168	31628.80	294.1
316.741	31571.58	296.4
317.314	31514.56	281.6
317.887	31457.74	283.9
318.460	31401.13	298.4
319.033	31344.73	306.4
319.606	31288.53	316.3
320.179	31232.52	333.8
320.752	31176.72	345.9
321.325	31121.12	361.7
321.898	31065.71	340.1
322.471	31010.51	362
323.044	30955.49	419.6
323.618	30900.68	428
324.191	30846.05	429.9
324.764	30791.62	453.8
325.337	30737.38	447.9
325.910	30683.33	489.6
326.483	30629.48	528
327.056	30575.81	585.4
327.629	30522.32	657.2
328.202	30469.03	785
328.775	30415.92	938
329.348	30363.00	1167
329.921	30310.25	1483
330.494	30257.70	1899
331.067	30205.32	2425
331.641	30153.13	3068
332.214	30101.11	3913
332.787	30049.28	5049
333.360	29997.62	6454
333.933	29946.14	8043
334.506	29894.83	9790
335.079	29843.71	1.175E4
335.652	29792.75	1.418E4
336.225	29741.97	1.722E4
336.798	29691.37	2.066E4
337.371	29640.93	2.41E4
337.944	29590.67	2.699E4
338.517	29540.57	2.96E4
339.091	29490.65	3.244E4
339.664	29440.89	3.57E4
340.237	29391.30	3.922E4
340.810	29341.88	4.154E4
341.383	29292.62	4.233E4
341.956	29243.53	4.13E4
342.529	29194.61	3.917E4
343.102	29145.84	3.654E4
343.675	29097.24	3.392E4
344.248	29048.81	3.063E4
344.821	29000.53	2.686E4
345.394	28952.41	2.276E4
345.967	28904.45	1.89E4
346.541	28856.65	1.557E4
347.114	28809.01	1.298E4
347.687	28761.53	1.105E4
348.260	28714.20	9613
348.833	28667.03	8441
349.406	28620.01	7341
349.979	28573.14	6317
350.552	28526.43	5392
351.125	28479.87	4625
351.698	28433.47	4021
352.271	28387.21	3481
352.844	28341.11	3009
353.417	28295.15	2619
353.991	28249.34	2246
354.564	28203.68	1914
355.137	28158.17	1649
355.710	28112.81	1437
356.283	28067.59	1307
356.856	28022.52	1175
357.429	27977.59	1065
358.002	27932.80	994.4
358.575	27888.16	924.9
359.148	27843.66	882.6
359.721	27799.30	827
360.294	27755.08	781.1
360.867	27711.01	783.9
361.441	27667.07	749.6
362.014	27623.27	684.2
362.587	27579.61	655.1
363.160	27536.09	633.7
363.733	27492.71	620.6
364.306	27449.46	601.1
364.879	27406.35	607.3
365.452	27363.37	604.5
366.025	27320.53	586.1
366.598	27277.82	549.6
367.171	27235.25	529.7
367.744	27192.80	519
368.317	27150.49	494.5
368.890	27108.32	486.2
369.464	27066.27	486.3
370.037	27024.35	466.5
370.610	26982.56	459.3
371.183	26940.90	456.4
371.756	26899.37	431.6
372.329	26857.97	430.4
372.902	26816.70	395.1
373.475	26775.55	409.8
374.048	26734.52	407.7
374.621	26693.63	395.1
375.194	26652.86	378.2
375.767	26612.21	368.1
376.340	26571.68	368.7
376.914	26531.28	354.4
377.487	26491.00	347.3
378.060	26450.85	355
378.633	26410.81	322.7
379.206	26370.90	329.3
379.779	26331.11	326.8
380.352	26291.44	325.9
380.925	26251.88	313.1
381.498	26212.45	311.8
382.071	26173.13	296.1
382.644	26133.93	303
383.217	26094.85	303.8
383.790	26055.89	304.6
384.364	26017.04	293.8
384.937	25978.30	276.4
385.510	25939.69	270.1
386.083	25901.18	263.3
386.656	25862.79	261
387.229	25824.52	271.4
387.802	25786.36	278.6
388.375	25748.31	275.4
388.948	25710.37	263.3
389.521	25672.54	254.3
390.094	25634.83	256.6
390.667	25597.22	259.6
391.240	25559.73	265
391.814	25522.35	267.8
392.387	25485.07	273.7
392.960	25447.90	259.3
393.533	25410.85	257
394.106	25373.90	235.4
394.679	25337.05	227
395.252	25300.32	280.8
395.825	25263.69	244.4
396.398	25227.16	232.6
396.971	25190.74	248.8
397.544	25154.43	240
398.117	25118.22	221.6
398.690	25082.12	252.5
399.263	25046.12	244.1
399.837	25010.22	241.2
400.410	24974.42	258.5
400.983	24938.73	229.4
401.556	24903.14	224
402.129	24867.65	212.9
402.702	24832.26	212
403.275	24796.97	223.8
403.848	24761.79	216.5
404.421	24726.70	203.9
404.994	24691.71	206.1
405.567	24656.82	222.3
406.140	24622.03	232.7
406.713	24587.33	226.3
407.287	24552.74	221.7
407.860	24518.24	231.2
408.433	24483.84	235.4
409.006	24449.53	218.8
409.579	24415.32	215.7
410.152	24381.21	228.8
410.725	24347.19	232.7
411.298	24313.27	228.9
411.871	24279.44	222.4
412.444	24245.70	227.4
413.017	24212.06	213.6
413.590	24178.51	204
414.163	24145.06	230.2
414.737	24111.69	229.1
415.310	24078.42	220.1
415.883	24045.24	220.7
416.456	24012.15	218.9
417.029	23979.16	224.7
417.602	23946.25	214.8
418.175	23913.43	238.1
418.748	23880.71	229.6
419.321	23848.07	206.2
419.894	23815.52	220.9
420.467	23783.06	212.7
421.040	23750.69	220
421.613	23718.41	216.8
422.187	23686.21	221.7
422.760	23654.11	228.1
423.333	23622.08	216.9
423.906	23590.15	211.2
424.479	23558.30	223.2
425.052	23526.54	217.8
425.625	23494.86	213.3
426.198	23463.27	227.6
426.771	23431.76	222.3
427.344	23400.34	210.6
427.917	23369.00	215.6
428.490	23337.75	211.4
429.063	23306.58	216.1
429.637	23275.49	231
430.210	23244.48	222.9
430.783	23213.56	234.7
431.356	23182.72	245.1
431.929	23151.96	238.5
432.502	23121.29	235.1
433.075	23090.69	216.8
433.648	23060.18	220.1
434.221	23029.74	232.7
434.794	22999.39	239.4
435.367	22969.11	228.9
435.940	22938.92	239.5
436.513	22908.80	212.2
437.086	22878.77	204.1
437.660	22848.81	225.7
438.233	22818.93	243.4
438.806	22789.13	234.4
439.379	22759.41	218.7
439.952	22729.76	218.2
440.525	22700.19	240.8
441.098	22670.70	223.7
441.671	22641.28	209.5
442.244	22611.94	215.7
442.817	22582.68	217.4
443.390	22553.49	215.9
443.963	22524.38	210
444.536	22495.34	216.2
445.110	22466.38	237.6
445.683	22437.49	250.3
446.256	22408.68	229
446.829	22379.94	218.2
447.402	22351.27	220.2
447.975	22322.68	219.4
448.548	22294.16	226.4
449.121	22265.71	223.8
449.694	22237.34	225.9
450.267	22209.03	231.1
450.840	22180.80	216
451.413	22152.64	221.5
451.986	22124.56	222
452.560	22096.54	210.9
453.133	22068.60	224.7
453.706	22040.72	230.9
454.279	22012.92	235
454.852	21985.18	233.3
455.425	21957.52	230.3
455.998	21929.92	234
456.571	21902.40	243.4
457.144	21874.94	240.2
457.717	21847.55	221.6
458.290	21820.23	252.6
458.863	21792.98	239
459.436	21765.80	246.6
460.010	21738.68	220.6
460.583	21711.63	227.7
461.156	21684.65	237.6
461.729	21657.74	232.7
462.302	21630.89	229.4
462.875	21604.11	238.6
463.448	21577.40	243.7
464.021	21550.75	237.4
464.594	21524.16	228
465.167	21497.65	233
465.740	21471.19	217.8
466.313	21444.81	222.5
466.886	21418.49	235.7
467.459	21392.23	226.2
468.033	21366.03	228
468.606	21339.90	232.1
469.179	21313.84	230.6
469.752	21287.84	217.8
470.325	21261.90	230.3
470.898	21236.02	238.3
471.471	21210.21	236
472.044	21184.46	237.6
472.617	21158.77	248.3
473.190	21133.15	260.2
473.763	21107.59	257.2
474.336	21082.08	235.3
474.909	21056.64	214.7
475.483	21031.27	232.9
476.056	21005.95	248.5
476.629	20980.69	237.9
477.202	20955.50	243.4
477.775	20930.36	243.5
478.348	20905.29	230.3
478.921	20880.27	226.4
479.494	20855.31	230.8
480.067	20830.42	233.6
480.640	20805.58	234.7
481.213	20780.80	218
481.786	20756.09	241.9
482.359	20731.43	255.8
482.933	20706.83	233.7
483.506	20682.28	227.8
484.079	20657.80	245.2
484.652	20633.37	250.1
485.225	20609.00	253.4
485.798	20584.69	232.2
486.371	20560.44	245.2
486.944	20536.24	229.4
487.517	20512.10	219.6
488.090	20488.02	225.4
488.663	20463.99	227.7
489.236	20440.02	266.3
489.809	20416.10	231.6
490.383	20392.24	232.7
490.956	20368.44	231.3
491.529	20344.69	239.1
492.102	20321.00	236.7
492.675	20297.36	247.4
493.248	20273.78	240.6
493.821	20250.25	237
494.394	20226.78	243.5
494.967	20203.36	245.7
495.540	20180.00	248.8
496.113	20156.69	245.6
496.686	20133.43	237.1
497.259	20110.23	239.7
497.833	20087.08	250.4
498.406	20063.98	238.7
498.979	20040.94	232.2
499.552	20017.95	232.7
500.125	19995.01	232.2
500.698	19972.12	238.2
501.271	19949.29	232.8
501.844	19926.51	233.1
502.417	19903.78	236.5
502.990	19881.10	227.8
503.563	19858.48	235.3
504.136	19835.90	245.6
504.709	19813.38	241.8
505.282	19790.91	238.8
505.856	19768.49	234
506.429	19746.12	232.4
507.002	19723.80	227.9
507.575	19701.53	233.6
508.148	19679.31	234.7
508.721	19657.14	223.2
509.294	19635.02	235.8
509.867	19612.95	232.4
510.440	19590.93	224.1
511.013	19568.96	247.4
511.586	19547.04	234.8
512.159	19525.17	226.7
512.732	19503.35	247.3
513.306	19481.57	239
513.879	19459.85	234.7
514.452	19438.17	225.5
515.025	19416.54	229.7
515.598	19394.96	214.5
516.171	19373.43	232.8
516.744	19351.94	217.9
517.317	19330.50	225.8
517.890	19309.11	222.8
518.463	19287.77	201.8
519.036	19266.47	239.9
519.609	19245.23	227.5
520.182	19224.02	226.8
520.756	19202.87	234.2
521.329	19181.76	241
521.902	19160.70	239.2
522.475	19139.68	238.5
523.048	19118.71	235.6
523.621	19097.79	227.5
524.194	19076.91	228.9
524.767	19056.07	218
525.340	19035.29	227
525.913	19014.54	225.8
526.486	18993.85	245.5
527.059	18973.19	233.2
527.632	18952.59	225.7
528.206	18932.02	239.2
528.779	18911.51	225.8
529.352	18891.03	234.5
529.925	18870.60	254
530.498	18850.22	261.6
531.071	18829.88	251
531.644	18809.58	229
532.217	18789.33	230.1
532.790	18769.12	238.8
533.363	18748.95	250.1
533.936	18728.83	250.2
534.509	18708.75	238.3
535.082	18688.71	245.2
535.655	18668.72	238.3
536.229	18648.76	239.1
536.802	18628.85	257
537.375	18608.99	259.9
537.948	18589.16	244
538.521	18569.38	234.2
539.094	18549.64	243.7
539.667	18529.94	250.7
540.240	18510.29	248.7
540.813	18490.67	244.7
541.386	18471.10	260.6
541.959	18451.57	234.5
542.532	18432.08	245
543.105	18412.63	252.5
543.679	18393.22	257.6
544.252	18373.85	246.9
544.825	18354.53	256.3
545.398	18335.24	269.1
545.971	18316.00	240.2
546.544	18296.79	221.5
547.117	18277.63	236.7
547.690	18258.50	270.7
548.263	18239.42	262.3
548.836	18220.37	260.4
549.409	18201.37	239.3
549.982	18182.40	233.2
550.555	18163.47	244.4
551.129	18144.59	234.1
551.702	18125.74	244.2
552.275	18106.93	224.6
552.848	18088.16	225.1
553.421	18069.43	244.8
553.994	18050.74	242.5
554.567	18032.09	238.2
555.140	18013.47	239.6
555.713	17994.90	242
556.286	17976.36	233.2
556.859	17957.86	224.2
557.432	17939.40	256.5
558.005	17920.97	240.8
558.579	17902.59	238.5
559.152	17884.24	236.5
559.725	17865.93	222.5
560.298	17847.65	222.3
560.871	17829.42	222.6
561.444	17811.22	226
562.017	17793.06	235
562.590	17774.93	233.9
563.163	17756.84	215.6
563.736	17738.79	234.1
564.309	17720.78	235.8
564.882	17702.80	222.3
565.455	17684.86	232.7
566.029	17666.95	233.4
566.602	17649.09	226.8
567.175	17631.25	220
567.748	17613.46	220.6
568.321	17595.70	215
568.894	17577.97	221.6
569.467	17560.28	223.8
570.040	17542.63	234.9
570.613	17525.01	239.2
571.186	17507.43	232.9
571.759	17489.88	227.3
572.332	17472.37	229.2
572.905	17454.89	241.6
573.478	17437.45	228.7
574.052	17420.04	227.5
574.625	17402.66	233.1
575.198	17385.33	225.7
575.771	17368.02	233.1
576.344	17350.75	230.9
576.917	17333.52	241.7
577.490	17316.32	256.9
578.063	17299.15	253.2
578.636	17282.02	237.4
579.209	17264.92	230.9
579.782	17247.85	247.7
580.355	17230.82	223.4
580.928	17213.82	232.1
581.502	17196.86	225.5
582.075	17179.93	221.4
582.648	17163.03	236.1
583.221	17146.17	223.6
583.794	17129.33	223.3
584.367	17112.54	221.7
584.940	17095.77	235.2
585.513	17079.04	252.7
586.086	17062.34	221.6
586.659	17045.67	183.9
587.232	17029.04	235.9
587.805	17012.43	233.8
588.378	16995.86	233.4
588.952	16979.33	240.9
589.525	16962.82	208.1
590.098	16946.35	227.8
590.671	16929.91	238.7
591.244	16913.50	231.6
591.817	16897.12	203
592.390	16880.77	256.7
592.963	16864.46	237.2
593.536	16848.17	218
594.109	16831.92	241.6
594.682	16815.70	223.3
595.255	16799.51	263
595.828	16783.35	188.6
596.402	16767.23	228.5
596.975	16751.13	218.8
597.548	16735.07	224
598.121	16719.03	222.7
598.694	16703.03	220.3
599.267	16687.06	212.3
599.840	16671.11	218.7
600.413	16655.20	227.9
600.986	16639.32	232
601.559	16623.47	215.4
602.132	16607.65	228.7
602.705	16591.86	247.8
603.278	16576.09	211.3
603.851	16560.36	196.8
604.425	16544.66	236.5
604.998	16528.99	212.9
605.571	16513.35	230.2
606.144	16497.74	214
606.717	16482.15	210.7
607.290	16466.60	226.1
607.863	16451.07	225
608.436	16435.58	210.3
609.009	16420.11	202.4
609.582	16404.68	197.8
610.155	16389.27	211
610.728	16373.89	222.2
611.301	16358.54	198.7
611.875	16343.22	215.9
612.448	16327.93	212.2
613.021	16312.66	245.5
613.594	16297.43	231.2
614.167	16282.22	212
614.740	16267.04	214
615.313	16251.89	224.3
615.886	16236.77	219.9
616.459	16221.67	211.7
617.032	16206.61	223.4
617.605	16191.57	236.6
618.178	16176.56	217.6
618.751	16161.58	218.8
619.325	16146.62	235.4
619.898	16131.70	240.5
620.471	16116.80	222.6
621.044	16101.92	220.1
621.617	16087.08	231.7
622.190	16072.26	221.6
622.763	16057.47	203.7
623.336	16042.71	205.1
623.909	16027.97	183.3
624.482	16013.27	196.1
625.055	15998.58	227.1
625.628	15983.93	229
626.201	15969.30	223.3
626.775	15954.70	238.2
627.348	15940.13	228.3
627.921	15925.58	233.5
628.494	15911.06	227.7
629.067	15896.56	222.6
629.640	15882.09	230.3
630.213	15867.65	244.4
630.786	15853.24	240.4
631.359	15838.85	233.9
631.932	15824.48	227.2
632.505	15810.14	222.1
633.078	15795.83	215.6
633.651	15781.55	221
634.225	15767.29	236
634.798	15753.05	235.2
635.371	15738.84	240
635.944	15724.66	242.3
636.517	15710.50	232.7
637.090	15696.37	228.5
637.663	15682.27	231.6
638.236	15668.18	248.5
638.809	15654.13	254
639.382	15640.10	244
639.955	15626.09	248
640.528	15612.11	250.2
641.101	15598.16	242
641.674	15584.23	230.8
642.248	15570.32	222.1
642.821	15556.44	223.2
643.394	15542.58	231.9
643.967	15528.75	248.3
644.540	15514.94	235.7
645.113	15501.16	223.6
645.686	15487.40	229.8
646.259	15473.67	222
646.832	15459.96	229
647.405	15446.28	231.9
647.978	15432.62	222.6
648.551	15418.98	222.6
649.124	15405.37	223.4
649.698	15391.78	223.7
650.271	15378.21	228.6
650.844	15364.67	225.8
651.417	15351.16	214.5
651.990	15337.66	212.2
652.563	15324.19	223.9
653.136	15310.75	225
653.709	15297.32	234.8
654.282	15283.93	235.2
654.855	15270.55	216.8
655.428	15257.20	227.2
656.001	15243.87	252.6
656.574	15230.57	242.5
657.148	15217.28	215.3
657.721	15204.02	224.1
658.294	15190.79	219.8
658.867	15177.58	210.5
659.440	15164.39	216.2
660.013	15151.22	227
660.586	15138.07	237.7
661.159	15124.95	217.2
661.732	15111.85	208.9
662.305	15098.78	207.2
662.878	15085.73	222.5
663.451	15072.69	225.4
664.024	15059.69	210.5
664.598	15046.70	218
665.171	15033.74	230.4
665.744	15020.80	226.5
666.317	15007.88	208.9
666.890	14994.98	204.6
667.463	14982.11	219.8
668.036	14969.25	218.7
668.609	14956.42	218.7
669.182	14943.62	210.3
669.755	14930.83	208.4
670.328	14918.06	220.2
670.901	14905.32	229.7
671.474	14892.60	226
672.048	14879.90	228.3
672.621	14867.22	236.4
673.194	14854.57	230.2
673.767	14841.93	219
674.340	14829.32	225.9
674.913	14816.73	234.1
675.486	14804.16	219.9
676.059	14791.61	218.1
