Wavelength [nm]	Wavenumbers [1/cm]	Intensity
175.764	56894.61	240.2
176.337	56709.71	264.9
176.910	56526.01	248.6
177.483	56343.49	273.9
178.056	56162.15	254.9
178.629	55981.97	250.1
179.202	55802.94	258.4
179.775	55625.06	261.7
180.348	55448.30	271.7
180.921	55272.67	261.7
181.494	55098.14	255.5
182.067	54924.71	272.7
182.640	54752.38	268.5
183.214	54581.11	247
183.787	54410.92	250
184.360	54241.79	255.9
184.933	54073.70	277.4
185.506	53906.65	310.6
186.079	53740.63	294.9
186.652	53575.64	273.6
187.225	53411.65	287.3
187.798	53248.66	299.8
188.371	53086.66	305.8
188.944	52925.65	286.7
189.517	52765.61	274
190.090	52606.53	290.3
190.664	52448.41	302.6
191.237	52291.24	293.5
191.810	52135.01	289.8
192.383	51979.71	299.4
192.956	51825.33	299
193.529	51671.86	300.1
194.102	51519.30	314
194.675	51367.64	307.2
195.248	51216.87	286.3
195.821	51066.99	282.1
196.394	50917.97	284.3
196.967	50769.83	294.7
197.540	50622.54	280.2
198.114	50476.11	296
198.687	50330.52	268.2
199.260	50185.77	302.6
199.833	50041.85	277.5
200.406	49898.75	293.8
200.979	49756.46	286.5
201.552	49614.99	295.8
202.125	49474.32	304.6
202.698	49334.44	316.4
203.271	49195.36	289.4
203.844	49057.05	279.4
204.417	48919.52	290.6
204.990	48782.76	292.5
205.564	48646.76	287.6
206.137	48511.52	295.2
206.710	48377.03	307.5
207.283	48243.28	295.5
207.856	48110.27	269.9
208.429	47977.99	265.7
209.002	47846.44	274.2
209.575	47715.60	277.2
210.148	47585.48	285.3
210.721	47456.07	294
211.294	47327.36	263.5
211.867	47199.34	274.7
212.440	47072.02	303.3
213.014	46945.38	258.2
213.587	46819.42	290.4
214.160	46694.13	263.2
214.733	46569.52	270.2
215.306	46445.56	274.6
215.879	46322.27	255.7
216.452	46199.63	275.6
217.025	46077.63	279
217.598	45956.28	276.5
218.171	45835.57	262.4
218.744	45715.48	260.4
219.317	45596.03	265.3
219.890	45477.20	255
220.463	45358.98	252.3
221.037	45241.38	256.5
221.610	45124.39	246.6
222.183	45008.00	246.5
222.756	44892.21	245.2
223.329	44777.01	260.9
223.902	44662.41	264.1
224.475	44548.38	270
225.048	44434.94	260.1
225.621	44322.08	292.3
226.194	44209.79	258.7
226.767	44098.06	257.4
227.340	43986.90	241.1
227.913	43876.30	264.9
228.487	43766.25	255.1
229.060	43656.75	261.6
229.633	43547.80	260.9
230.206	43439.39	261.5
230.779	43331.52	265
231.352	43224.19	252.6
231.925	43117.38	238
232.498	43011.11	252.7
233.071	42905.35	248.6
233.644	42800.11	234.8
234.217	42695.39	255.1
234.790	42591.18	246.9
235.363	42487.48	244.6
235.937	42384.28	265.7
236.510	42281.58	268.9
237.083	42179.37	250
237.656	42077.66	261.9
238.229	41976.44	242.5
238.802	41875.71	239.3
239.375	41775.46	236.1
239.948	41675.68	257.9
240.521	41576.38	272.7
241.094	41477.56	266.1
241.667	41379.20	229.3
242.240	41281.31	252.9
242.813	41183.88	255.7
243.387	41086.91	272.3
243.960	40990.39	267
244.533	40894.33	270.7
245.106	40798.71	265.2
245.679	40703.55	260.2
246.252	40608.82	267.8
246.825	40514.54	258.3
247.398	40420.69	254.1
247.971	40327.27	267.4
248.544	40234.29	260.2
249.117	40141.73	264.6
249.690	40049.60	275.2
250.263	39957.89	262.5
250.837	39866.60	259
251.410	39775.73	254.7
251.983	39685.27	237.3
252.556	39595.22	251.5
253.129	39505.57	233.3
253.702	39416.34	262.5
254.275	39327.50	249
254.848	39239.07	255.4
255.421	39151.03	259.4
255.994	39063.38	245.1
256.567	38976.13	260.1
257.140	38889.27	270.4
257.713	38802.79	272.9
258.287	38716.69	250.1
258.860	38630.98	257.2
259.433	38545.65	267.4
260.006	38460.69	253.2
260.579	38376.10	255.3
261.152	38291.89	263.1
261.725	38208.05	265.5
262.298	38124.57	270.2
262.871	38041.45	258
263.444	37958.70	252.3
264.017	37876.31	273.1
264.590	37794.27	241.9
265.163	37712.59	239.4
265.737	37631.26	250.6
266.310	37550.28	254.9
266.883	37469.65	264.1
267.456	37389.36	259
268.029	37309.42	251.6
268.602	37229.82	255.6
269.175	37150.56	264.4
269.748	37071.63	256.3
270.321	36993.04	253.6
270.894	36914.78	261
271.467	36836.85	256.2
272.040	36759.25	265.1
272.613	36681.98	265.2
273.186	36605.03	263.8
273.760	36528.40	268.8
274.333	36452.10	268.7
274.906	36376.11	266.8
275.479	36300.43	261.6
276.052	36225.08	255.6
276.625	36150.03	254.7
277.198	36075.29	265.3
277.771	36000.86	255.9
278.344	35926.74	249.7
278.917	35852.93	239.1
279.490	35779.41	255.2
280.063	35706.20	239.3
280.636	35633.29	230.1
281.210	35560.67	264.5
281.783	35488.35	269.8
282.356	35416.32	246.8
282.929	35344.58	256.4
283.502	35273.14	267.2
284.075	35201.98	272.1
284.648	35131.11	265.2
285.221	35060.52	256.9
285.794	34990.22	253.7
286.367	34920.19	243.7
286.940	34850.45	250.1
287.513	34780.99	254.8
288.086	34711.80	255.9
288.660	34642.89	262.7
289.233	34574.25	259.5
289.806	34505.88	258.1
290.379	34437.78	264.1
290.952	34369.95	259.9
291.525	34302.38	256.5
292.098	34235.08	251.1
292.671	34168.05	270.5
293.244	34101.28	260
293.817	34034.76	262.6
294.390	33968.51	234.4
294.963	33902.51	265.5
295.536	33836.77	250.1
296.110	33771.29	240.6
296.683	33706.05	253.1
297.256	33641.07	262.6
297.829	33576.34	252.2
298.402	33511.86	264
298.975	33447.62	241.7
299.548	33383.63	243.5
300.121	33319.89	261.3
300.694	33256.38	286.3
301.267	33193.12	268.1
301.840	33130.10	242.5
302.413	33067.32	244.2
302.986	33004.78	254.3
303.560	32942.47	252.7
304.133	32880.39	252.8
304.706	32818.55	256.4
305.279	32756.95	249.1
305.852	32695.57	251.7
306.425	32634.42	241.3
306.998	32573.50	258.5
307.571	32512.81	257.2
308.144	32452.35	255.5
308.717	32392.10	259.1
309.290	32332.09	268.3
309.863	32272.29	241.6
310.436	32212.71	288.9
311.010	32153.36	258.6
311.583	32094.22	264.6
312.156	32035.30	253.2
312.729	31976.59	268.7
313.302	31918.10	257.1
313.875	31859.83	265.8
314.448	31801.76	256.1
315.021	31743.91	274.2
315.594	31686.27	256.1
316.167	31628.83	271.5
316.740	31571.61	271.9
317.313	31514.59	257.9
317.886	31457.78	254
318.460	31401.17	257.7
319.033	31344.76	258.6
319.606	31288.56	262.4
320.179	31232.56	272.1
320.752	31176.75	271.2
321.325	31121.15	270.6
321.898	31065.75	231
322.471	31010.54	244.1
323.044	30955.52	278
323.617	30900.71	272.4
324.190	30846.08	261.9
324.763	30791.65	266.3
325.336	30737.41	250.8
325.909	30683.37	264.8
326.483	30629.51	263.9
327.056	30575.84	271.4
327.629	30522.35	259
328.202	30469.06	276.4
328.775	30415.95	269.2
329.348	30363.02	255.2
329.921	30310.28	249.6
330.494	30257.73	243.7
331.067	30205.35	255.9
331.640	30153.16	263.5
332.213	30101.14	259.8
332.786	30049.30	262.4
333.359	29997.65	265.1
333.933	29946.17	269.3
334.506	29894.86	267.2
335.079	29843.73	261.1
335.652	29792.78	258.2
336.225	29742.00	252.5
336.798	29691.39	255
337.371	29640.96	255.1
337.944	29590.69	263.8
338.517	29540.60	285.6
339.090	29490.67	281.4
339.663	29440.92	264.2
340.236	29391.33	259.9
340.809	29341.91	256.2
341.383	29292.65	245.2
341.956	29243.56	236.4
342.529	29194.63	257.4
343.102	29145.87	252.8
343.675	29097.27	248.1
344.248	29048.83	251.8
344.821	29000.55	267.7
345.394	28952.44	258.1
345.967	28904.48	274.3
346.540	28856.68	274
347.113	28809.04	273.2
347.686	28761.55	257.4
348.259	28714.22	249.2
348.833	28667.05	263.6
349.406	28620.03	270.4
349.979	28573.17	267.7
350.552	28526.46	262.1
351.125	28479.90	261.2
351.698	28433.49	268.8
352.271	28387.24	259.1
352.844	28341.13	253.6
353.417	28295.18	281
353.990	28249.37	288.2
354.563	28203.71	287.3
355.136	28158.20	274.1
355.709	28112.83	273.6
356.283	28067.61	296.9
356.856	28022.54	290.6
357.429	27977.61	277.4
358.002	27932.82	282.4
358.575	27888.18	279
359.148	27843.68	295.9
359.721	27799.32	290.3
360.294	27755.11	273.5
360.867	27711.03	300.9
361.440	27667.09	304
362.013	27623.30	272.2
362.586	27579.64	274.3
363.159	27536.11	280
363.733	27492.73	290.8
364.306	27449.48	296.6
364.879	27406.37	322.3
365.452	27363.39	331
366.025	27320.55	331.3
366.598	27277.84	322.1
367.171	27235.27	321.7
367.744	27192.83	329.5
368.317	27150.52	331.7
368.890	27108.34	341.5
369.463	27066.29	354
370.036	27024.37	356.6
370.609	26982.58	372.8
371.183	26940.93	391.8
371.756	26899.39	394.6
372.329	26857.99	428.5
372.902	26816.72	424.1
373.475	26775.57	470.7
374.048	26734.55	505.1
374.621	26693.65	533.5
375.194	26652.88	572.1
375.767	26612.23	614.1
376.340	26571.70	673.7
376.913	26531.30	723.1
377.486	26491.02	811.9
378.059	26450.87	917.8
378.632	26410.83	999.6
379.206	26370.92	1140
379.779	26331.13	1307
380.352	26291.45	1488
380.925	26251.90	1694
381.498	26212.47	1950
382.071	26173.15	2255
382.644	26133.95	2627
383.217	26094.87	3076
383.790	26055.90	3627
384.363	26017.06	4268
384.936	25978.32	5028
385.509	25939.70	5952
386.082	25901.20	7058
386.656	25862.81	8373
387.229	25824.54	9947
387.802	25786.37	1.178E4
388.375	25748.32	1.384E4
388.948	25710.39	1.614E4
389.521	25672.56	1.87E4
390.094	25634.85	2.148E4
390.667	25597.24	2.439E4
391.240	25559.75	2.728E4
391.813	25522.36	3.008E4
392.386	25485.09	3.265E4
392.959	25447.92	3.473E4
393.532	25410.86	3.606E4
394.106	25373.91	3.678E4
394.679	25337.07	3.66E4
395.252	25300.33	3.574E4
395.825	25263.70	3.381E4
396.398	25227.18	3.16E4
396.971	25190.76	2.906E4
397.544	25154.45	2.651E4
398.117	25118.24	2.406E4
398.690	25082.13	2.197E4
399.263	25046.13	2.01E4
399.836	25010.24	1.838E4
400.409	24974.44	1.691E4
400.982	24938.75	1.556E4
401.556	24903.16	1.433E4
402.129	24867.67	1.315E4
402.702	24832.28	1.206E4
403.275	24796.99	1.106E4
403.848	24761.80	1.007E4
404.421	24726.71	9103
404.994	24691.72	8242
405.567	24656.83	7472
406.140	24622.04	6741
406.713	24587.35	6050
407.286	24552.75	5429
407.859	24518.25	4895
408.432	24483.85	4427
409.006	24449.55	4013
409.579	24415.34	3658
410.152	24381.22	3355
410.725	24347.21	3092
411.298	24313.28	2850
411.871	24279.45	2645
412.444	24245.72	2470
413.017	24212.08	2298
413.590	24178.53	2135
414.163	24145.07	2014
414.736	24111.71	1881
415.309	24078.44	1743
415.882	24045.26	1630
416.456	24012.17	1516
417.029	23979.17	1411
417.602	23946.26	1306
418.175	23913.45	1227
418.748	23880.72	1120
419.321	23848.08	1021
419.894	23815.54	961.7
420.467	23783.08	879.2
421.040	23750.71	822.4
421.613	23718.42	771.7
422.186	23686.23	734
422.759	23654.12	698.9
423.332	23622.10	649.6
423.906	23590.16	609.4
424.479	23558.31	588.9
425.052	23526.55	553.9
425.625	23494.88	525.7
426.198	23463.28	518.5
426.771	23431.78	495.7
427.344	23400.35	469.3
427.917	23369.02	457
428.490	23337.76	438.6
429.063	23306.59	429.5
429.636	23275.50	428.9
430.209	23244.50	413.6
430.782	23213.58	413.6
431.355	23182.74	414.1
431.929	23151.98	400
432.502	23121.30	388.5
433.075	23090.70	360.5
433.648	23060.19	355.3
434.221	23029.75	359.9
434.794	22999.40	362.4
435.367	22969.13	343.6
435.940	22938.93	355.9
436.513	22908.82	323.9
437.086	22878.78	301.9
437.659	22848.82	327.1
438.232	22818.94	341.3
438.805	22789.14	330.9
439.379	22759.42	313.7
439.952	22729.77	315.6
440.525	22700.20	326.3
441.098	22670.71	312.4
441.671	22641.29	295.6
442.244	22611.96	298.9
442.817	22582.69	308.4
443.390	22553.50	298
443.963	22524.39	291.1
444.536	22495.35	294.3
445.109	22466.39	314
445.682	22437.50	322.2
446.255	22408.69	300
446.829	22379.95	288.1
447.402	22351.28	290
447.975	22322.69	291.7
448.548	22294.17	298
449.121	22265.72	295.5
449.694	22237.35	295
450.267	22209.04	296.4
450.840	22180.81	281.5
451.413	22152.66	282.9
451.986	22124.57	282.9
452.559	22096.55	269.8
453.132	22068.61	281.7
453.705	22040.73	282.9
454.279	22012.93	286.3
454.852	21985.19	282.4
455.425	21957.53	277
455.998	21929.93	288.1
456.571	21902.41	293.6
457.144	21874.95	289.3
457.717	21847.56	276.4
458.290	21820.24	301.8
458.863	21792.99	285.6
459.436	21765.81	295.6
460.009	21738.69	261.9
460.582	21711.64	276
461.155	21684.66	284.3
461.729	21657.75	283.7
462.302	21630.90	278.2
462.875	21604.12	284.1
463.448	21577.41	287
464.021	21550.76	284
464.594	21524.17	278.9
465.167	21497.66	276.2
465.740	21471.20	261.7
466.313	21444.82	267
466.886	21418.50	278.4
467.459	21392.24	268.8
468.032	21366.04	270.5
468.605	21339.91	272.3
469.179	21313.85	269.5
469.752	21287.85	260.8
470.325	21261.91	270.4
470.898	21236.03	272.1
471.471	21210.22	268.6
472.044	21184.47	270.3
472.617	21158.78	280.9
473.190	21133.16	293.2
473.763	21107.59	291.9
474.336	21082.09	269.2
474.909	21056.65	248.5
475.482	21031.28	273.6
476.055	21005.96	289.2
476.628	20980.70	276.2
477.202	20955.51	280.9
477.775	20930.37	276.1
478.348	20905.29	264.9
478.921	20880.28	267.3
479.494	20855.32	267.4
480.067	20830.43	269.9
480.640	20805.59	277.2
481.213	20780.81	253.9
481.786	20756.10	276.2
482.359	20731.44	289.7
482.932	20706.83	261.1
483.505	20682.29	259.5
484.078	20657.81	275.3
484.652	20633.38	279.2
485.225	20609.01	285
485.798	20584.70	259.4
486.371	20560.45	279
486.944	20536.25	264.7
487.517	20512.11	250.6
488.090	20488.02	254.2
488.663	20464.00	261.1
489.236	20440.03	295.4
489.809	20416.11	266.7
490.382	20392.25	265.6
490.955	20368.45	265.6
491.528	20344.70	269.3
492.102	20321.01	269.2
492.675	20297.37	276.4
493.248	20273.79	272.1
493.821	20250.26	274.5
494.394	20226.79	277.6
494.967	20203.37	279
495.540	20180.01	280.9
496.113	20156.69	276.4
496.686	20133.44	266.2
497.259	20110.23	269.3
497.832	20087.09	280.6
498.405	20063.99	270.6
498.978	20040.95	264.4
499.552	20017.95	266.5
500.125	19995.02	266.7
500.698	19972.13	269.1
501.271	19949.30	267
501.844	19926.52	271.4
502.417	19903.79	273.8
502.990	19881.11	265.3
503.563	19858.49	265.5
504.136	19835.91	271.7
504.709	19813.39	273.5
505.282	19790.92	274.1
505.855	19768.50	271.1
506.428	19746.13	268.7
507.002	19723.81	260.5
507.575	19701.54	267
508.148	19679.32	263.2
508.721	19657.15	254.4
509.294	19635.03	269.9
509.867	19612.96	266.4
510.440	19590.94	261.1
511.013	19568.97	282.1
511.586	19547.05	266.3
512.159	19525.18	262.3
512.732	19503.36	280.4
513.305	19481.58	268.4
513.878	19459.86	266
514.452	19438.18	263.5
515.025	19416.55	266.3
515.598	19394.97	250.3
516.171	19373.43	267.2
516.744	19351.95	251.6
517.317	19330.51	256.1
517.890	19309.12	256.5
518.463	19287.78	234.4
519.036	19266.48	274.4
519.609	19245.23	260.6
520.182	19224.03	259
520.755	19202.88	267.6
521.328	19181.77	276.1
521.902	19160.70	273.7
522.475	19139.69	275.3
523.048	19118.72	273.2
523.621	19097.79	263.1
524.194	19076.91	261.9
524.767	19056.08	250.2
525.340	19035.29	257.1
525.913	19014.55	262.3
526.486	18993.85	279
527.059	18973.20	268.5
527.632	18952.59	264
528.205	18932.03	275.3
528.778	18911.51	262.1
529.351	18891.04	275.2
529.925	18870.61	295.1
530.498	18850.22	302.1
531.071	18829.88	293.4
531.644	18809.59	268.1
532.217	18789.33	266.2
532.790	18769.12	276.4
533.363	18748.96	287.7
533.936	18728.83	286
534.509	18708.75	274.6
535.082	18688.72	283.3
535.655	18668.72	277
536.228	18648.77	280.8
536.801	18628.86	294.8
537.375	18608.99	295.7
537.948	18589.17	279.2
538.521	18569.39	266.9
539.094	18549.65	274.7
539.667	18529.95	280.7
540.240	18510.29	280.9
540.813	18490.68	284
541.386	18471.11	301
541.959	18451.57	275.8
542.532	18432.08	291.1
543.105	18412.63	287.3
543.678	18393.23	292.8
544.251	18373.86	283.2
544.825	18354.53	290.5
545.398	18335.25	304.8
545.971	18316.00	280.4
546.544	18296.80	257.1
547.117	18277.63	274.2
547.690	18258.51	304.5
548.263	18239.42	301.1
548.836	18220.38	293.7
549.409	18201.37	284.9
549.982	18182.41	270.8
550.555	18163.48	283.4
551.128	18144.59	268.3
551.701	18125.74	278.9
552.275	18106.94	265.8
552.848	18088.17	274.1
553.421	18069.44	285.1
553.994	18050.74	275.8
554.567	18032.09	278.1
555.140	18013.48	282.9
555.713	17994.90	278.1
556.286	17976.36	270.3
556.859	17957.86	258.5
557.432	17939.40	297.7
558.005	17920.98	279.1
558.578	17902.59	277.9
559.151	17884.24	273.9
559.725	17865.93	261.6
560.298	17847.66	263.5
560.871	17829.42	265.5
561.444	17811.22	267.2
562.017	17793.06	274.4
562.590	17774.94	276.6
563.163	17756.85	258.5
563.736	17738.80	278.7
564.309	17720.78	280.2
564.882	17702.81	267.9
565.455	17684.86	280.6
566.028	17666.96	275.6
566.601	17649.09	269.6
567.175	17631.26	266.9
567.748	17613.46	267.4
568.321	17595.70	264.1
568.894	17577.97	269.8
569.467	17560.29	266.7
570.040	17542.63	273.6
570.613	17525.01	278.2
571.186	17507.43	279
571.759	17489.88	274.9
572.332	17472.37	271.2
572.905	17454.89	283.8
573.478	17437.45	273.1
574.051	17420.04	271.4
574.625	17402.67	277
575.198	17385.33	268.3
575.771	17368.03	274
576.344	17350.76	269.8
576.917	17333.52	277.9
577.490	17316.32	296.1
578.063	17299.15	297.7
578.636	17282.02	285.7
579.209	17264.92	273.8
579.782	17247.86	287.8
580.355	17230.82	264
580.928	17213.83	271.5
581.501	17196.86	270
582.074	17179.93	272.1
582.648	17163.03	283.6
583.221	17146.17	274.3
583.794	17129.34	269
584.367	17112.54	268
584.940	17095.77	280.8
585.513	17079.04	293.9
586.086	17062.34	268
586.659	17045.67	235.6
587.232	17029.04	278.2
587.805	17012.44	281.7
588.378	16995.87	278
588.951	16979.33	285
589.524	16962.82	255.5
590.098	16946.35	274.4
590.671	16929.91	278.8
591.244	16913.50	279
591.817	16897.12	249.5
592.390	16880.78	305.1
592.963	16864.46	283.6
593.536	16848.18	264.3
594.109	16831.93	284.2
594.682	16815.71	270.4
595.255	16799.52	311.5
595.828	16783.36	239.5
596.401	16767.23	278.3
596.974	16751.14	270.9
597.548	16735.07	274.8
598.121	16719.04	271.2
598.694	16703.03	262.2
599.267	16687.06	261
599.840	16671.12	263.2
600.413	16655.20	283.6
600.986	16639.32	281.2
601.559	16623.47	265.6
602.132	16607.65	269.6
602.705	16591.86	288.5
603.278	16576.10	260.6
603.851	16560.37	247.2
604.424	16544.66	284
604.998	16528.99	258.2
605.571	16513.35	277.9
606.144	16497.74	262.6
606.717	16482.16	259.5
607.290	16466.60	276
607.863	16451.08	270.9
608.436	16435.58	263.2
609.009	16420.12	250.1
609.582	16404.68	246.4
610.155	16389.27	256.5
610.728	16373.89	264.8
611.301	16358.54	241.7
611.874	16343.22	263
612.448	16327.93	264.8
613.021	16312.67	293
613.594	16297.43	275
614.167	16282.22	258.3
614.740	16267.04	260
615.313	16251.89	272.5
615.886	16236.77	270.8
616.459	16221.68	264.4
617.032	16206.61	268.5
617.605	16191.57	285.5
618.178	16176.56	272.7
618.751	16161.58	271.5
619.324	16146.63	281.6
619.898	16131.70	286.8
620.471	16116.80	276.2
621.044	16101.93	272
621.617	16087.08	281
622.190	16072.27	271.2
622.763	16057.48	261.4
623.336	16042.71	257.5
623.909	16027.98	236.5
624.482	16013.27	246.6
625.055	15998.59	276.8
625.628	15983.93	279.9
626.201	15969.30	273.6
626.774	15954.70	292.8
627.348	15940.13	283.5
627.921	15925.58	288
628.494	15911.06	279.7
629.067	15896.56	274
629.640	15882.10	282.4
630.213	15867.65	295.1
630.786	15853.24	288.8
631.359	15838.85	283.4
631.932	15824.48	282.4
632.505	15810.15	272
633.078	15795.84	267.9
633.651	15781.55	272.9
634.224	15767.29	279.4
634.797	15753.06	281.3
635.371	15738.85	287.9
635.944	15724.66	289.3
636.517	15710.51	277.4
637.090	15696.37	274.4
637.663	15682.27	283.9
638.236	15668.19	299.5
638.809	15654.13	304.3
639.382	15640.10	292.4
639.955	15626.09	293.4
640.528	15612.11	300.6
641.101	15598.16	291.6
641.674	15584.23	279.3
642.247	15570.32	273.5
642.821	15556.44	273.3
643.394	15542.58	278.2
643.967	15528.75	292.8
644.540	15514.95	285.6
645.113	15501.16	274.3
645.686	15487.41	284.5
646.259	15473.67	278.9
646.832	15459.96	278.7
647.405	15446.28	279.7
647.978	15432.62	271.6
648.551	15418.98	277.3
649.124	15405.37	279.3
649.697	15391.78	275.8
650.271	15378.21	277.3
650.844	15364.67	277.2
651.417	15351.16	265
651.990	15337.66	262.5
652.563	15324.19	277.3
653.136	15310.75	280.1
653.709	15297.33	287.7
654.282	15283.93	285.6
654.855	15270.55	268.4
655.428	15257.20	275.6
656.001	15243.87	302.1
656.574	15230.57	291.9
657.147	15217.28	266.2
657.721	15204.03	273.6
658.294	15190.79	270.8
658.867	15177.58	265.4
659.440	15164.39	268.2
660.013	15151.22	278.1
660.586	15138.08	291.1
661.159	15124.96	270.7
661.732	15111.86	264.7
662.305	15098.78	262.8
662.878	15085.73	275.2
663.451	15072.70	278
664.024	15059.69	264.9
664.597	15046.70	274.1
665.171	15033.74	285.9
665.744	15020.80	278.5
666.317	15007.88	265.2
666.890	14994.98	262.7
667.463	14982.11	273.8
668.036	14969.26	270.8
668.609	14956.42	272.7
669.182	14943.62	262.2
669.755	14930.83	261.8
670.328	14918.07	273.9
670.901	14905.32	278.7
671.474	14892.60	279.4
672.047	14879.90	278.2
672.621	14867.22	283.5
673.194	14854.57	278.4
673.767	14841.93	268.9
674.340	14829.32	281.3
674.913	14816.73	289.1
675.486	14804.16	269.2
676.059	14791.61	268.3
