Wavelength [nm]	Wavenumbers [1/cm]	Intensity
175.764	56894.61	213
176.337	56709.71	238.3
176.910	56526.01	219.5
177.483	56343.49	248.1
178.056	56162.15	229.7
178.629	55981.97	222.4
179.202	55802.94	230.7
179.775	55625.06	234
180.348	55448.30	244.4
180.921	55272.67	234.5
181.494	55098.14	228.4
182.067	54924.71	246
182.640	54752.38	241.8
183.214	54581.11	220.7
183.787	54410.92	224.6
184.360	54241.79	230.3
184.933	54073.70	249
185.506	53906.65	278.4
186.079	53740.63	265.8
186.652	53575.64	244.1
187.225	53411.65	257.2
187.798	53248.66	267.9
188.371	53086.66	277
188.944	52925.65	256.3
189.517	52765.61	242.9
190.090	52606.53	262.6
190.664	52448.41	274.2
191.237	52291.24	265.2
191.810	52135.01	260.7
192.383	51979.71	271.9
192.956	51825.33	272.2
193.529	51671.86	271.9
194.102	51519.30	285.7
194.675	51367.64	279.9
195.248	51216.87	259.3
195.821	51066.99	255.8
196.394	50917.97	259.5
196.967	50769.83	270.4
197.540	50622.54	254
198.114	50476.11	268.5
198.687	50330.52	241
199.260	50185.77	277.6
199.833	50041.85	250.8
200.406	49898.75	269.7
200.979	49756.46	260.4
201.552	49614.99	271.7
202.125	49474.32	278
202.698	49334.44	289.7
203.271	49195.36	263.3
203.844	49057.05	252.9
204.417	48919.52	264.2
204.990	48782.76	267.3
205.564	48646.76	262.1
206.137	48511.52	268.4
206.710	48377.03	280.9
207.283	48243.28	269
207.856	48110.27	242.5
208.429	47977.99	239.7
209.002	47846.44	249.8
209.575	47715.60	252.1
210.148	47585.48	259.4
210.721	47456.07	269.8
211.294	47327.36	236.8
211.867	47199.34	247.6
212.440	47072.02	276.2
213.014	46945.38	231.4
213.587	46819.42	265.4
214.160	46694.13	238.5
214.733	46569.52	243.6
215.306	46445.56	247.2
215.879	46322.27	227.9
216.452	46199.63	249.8
217.025	46077.63	253.8
217.598	45956.28	249.8
218.171	45835.57	235.7
218.744	45715.48	234.5
219.317	45596.03	238.9
219.890	45477.20	228.8
220.463	45358.98	226.5
221.037	45241.38	229.7
221.610	45124.39	218.8
222.183	45008.00	218.3
222.756	44892.21	219.4
223.329	44777.01	233.8
223.902	44662.41	236
224.475	44548.38	242
225.048	44434.94	233.6
225.621	44322.08	266.9
226.194	44209.79	230.5
226.767	44098.06	229.3
227.340	43986.90	214.6
227.913	43876.30	238
228.487	43766.25	229.1
229.060	43656.75	233.4
229.633	43547.80	232.9
230.206	43439.39	233.2
230.779	43331.52	236.6
231.352	43224.19	224.9
231.925	43117.38	210.2
232.498	43011.11	224.6
233.071	42905.35	220
233.644	42800.11	205.6
234.217	42695.39	227.1
234.790	42591.18	218.6
235.363	42487.48	215.5
235.937	42384.28	238.9
236.510	42281.58	241.9
237.083	42179.37	221.7
237.656	42077.66	234.2
238.229	41976.44	215.5
238.802	41875.71	210.6
239.375	41775.46	210.3
239.948	41675.68	230.2
240.521	41576.38	241.9
241.094	41477.56	236.6
241.667	41379.20	202.7
242.240	41281.31	227.4
242.813	41183.88	228.3
243.387	41086.91	243.7
243.960	40990.39	239.4
244.533	40894.33	243.1
245.106	40798.71	238.5
245.679	40703.55	233.7
246.252	40608.82	241.3
246.825	40514.54	231.7
247.398	40420.69	226
247.971	40327.27	239.5
248.544	40234.29	231.7
249.117	40141.73	235.9
249.690	40049.60	247
250.263	39957.89	233.2
250.837	39866.60	228.9
251.410	39775.73	227.1
251.983	39685.27	208.1
252.556	39595.22	223.4
253.129	39505.57	205.2
253.702	39416.34	233.2
254.275	39327.50	220.8
254.848	39239.07	226
255.421	39151.03	231.5
255.994	39063.38	216.7
256.567	38976.13	232.1
257.140	38889.27	243
257.713	38802.79	245.1
258.287	38716.69	222
258.860	38630.98	228.6
259.433	38545.65	239.7
260.006	38460.69	226
260.579	38376.10	227.8
261.152	38291.89	235.5
261.725	38208.05	237
262.298	38124.57	241.9
262.871	38041.45	228.5
263.444	37958.70	224.3
264.017	37876.31	245.7
264.590	37794.27	215.6
265.163	37712.59	211.8
265.737	37631.26	224.4
266.310	37550.28	224.1
266.883	37469.65	236.1
267.456	37389.36	228.9
268.029	37309.42	223.9
268.602	37229.82	226.7
269.175	37150.56	235
269.748	37071.63	227
270.321	36993.04	225.4
270.894	36914.78	232.9
271.467	36836.85	228.6
272.040	36759.25	236.9
272.613	36681.98	236
273.186	36605.03	233.8
273.760	36528.40	240.1
274.333	36452.10	241
274.906	36376.11	237.8
275.479	36300.43	232.6
276.052	36225.08	228.1
276.625	36150.03	228
277.198	36075.29	237.4
277.771	36000.86	225.6
278.344	35926.74	219.9
278.917	35852.93	210.7
279.490	35779.41	225.1
280.063	35706.20	211.1
280.636	35633.29	200.4
281.210	35560.67	235
281.783	35488.35	241.1
282.356	35416.32	217.6
282.929	35344.58	228.8
283.502	35273.14	238.7
284.075	35201.98	241.6
284.648	35131.11	235
285.221	35060.52	227.2
285.794	34990.22	227.3
286.367	34920.19	217.9
286.940	34850.45	222.2
287.513	34780.99	225.1
288.086	34711.80	225.5
288.660	34642.89	232.9
289.233	34574.25	231.2
289.806	34505.88	230.5
290.379	34437.78	236.3
290.952	34369.95	232.7
291.525	34302.38	227.2
292.098	34235.08	222.4
292.671	34168.05	241.4
293.244	34101.28	230.2
293.817	34034.76	231.8
294.390	33968.51	206.5
294.963	33902.51	237.5
295.536	33836.77	220.1
296.110	33771.29	210.7
296.683	33706.05	224.5
297.256	33641.07	233
297.829	33576.34	221.9
298.402	33511.86	232.2
298.975	33447.62	211.8
299.548	33383.63	212.3
300.121	33319.89	232
300.694	33256.38	256.9
301.267	33193.12	238.5
301.840	33130.10	212.8
302.413	33067.32	215.4
302.986	33004.78	224.9
303.560	32942.47	221.8
304.133	32880.39	222.9
304.706	32818.55	226.7
305.279	32756.95	219.1
305.852	32695.57	222.7
306.425	32634.42	212.7
306.998	32573.50	227.9
307.571	32512.81	229.8
308.144	32452.35	226.3
308.717	32392.10	228.5
309.290	32332.09	238
309.863	32272.29	211.8
310.436	32212.71	259.1
311.010	32153.36	227.3
311.583	32094.22	233.5
312.156	32035.30	223.5
312.729	31976.59	240.3
313.302	31918.10	226.5
313.875	31859.83	233.5
314.448	31801.76	226.4
315.021	31743.91	245.5
315.594	31686.27	226.6
316.167	31628.83	241.7
316.740	31571.61	242.9
317.313	31514.59	227.9
317.886	31457.78	224.7
318.460	31401.17	228.5
319.033	31344.76	228.1
319.606	31288.56	232
320.179	31232.56	241
320.752	31176.75	240.8
321.325	31121.15	239.9
321.898	31065.75	201.3
322.471	31010.54	214.1
323.044	30955.52	247.8
323.617	30900.71	242.2
324.190	30846.08	231
324.763	30791.65	235.1
325.336	30737.41	221.2
325.909	30683.37	233.7
326.483	30629.51	233.5
327.056	30575.84	238.5
327.629	30522.35	226.7
328.202	30469.06	245.5
328.775	30415.95	238.5
329.348	30363.02	223.5
329.921	30310.28	218.7
330.494	30257.73	213.2
331.067	30205.35	224
331.640	30153.16	230.3
332.213	30101.14	228
332.786	30049.30	231.7
333.359	29997.65	233.6
333.933	29946.17	237
334.506	29894.86	235
335.079	29843.73	228.9
335.652	29792.78	226.1
336.225	29742.00	221
336.798	29691.39	222.7
337.371	29640.96	222.3
337.944	29590.69	229.5
338.517	29540.60	250
339.090	29490.67	247
339.663	29440.92	231.2
340.236	29391.33	229.4
340.809	29341.91	224.9
341.383	29292.65	211.3
341.956	29243.56	205.1
342.529	29194.63	223.2
343.102	29145.87	218.7
343.675	29097.27	212.9
344.248	29048.83	215.4
344.821	29000.55	231.4
345.394	28952.44	220.3
345.967	28904.48	240.2
346.540	28856.68	240.1
347.113	28809.04	238.3
347.686	28761.55	220.6
348.259	28714.22	211.7
348.833	28667.05	225.2
349.406	28620.03	231.5
349.979	28573.17	228.8
350.552	28526.46	222.4
351.125	28479.90	220.2
351.698	28433.49	228
352.271	28387.24	218.4
352.844	28341.13	210.7
353.417	28295.18	237.3
353.990	28249.37	243.7
354.563	28203.71	240.8
355.136	28158.20	229.7
355.709	28112.83	228.4
356.283	28067.61	250
356.856	28022.54	243.1
357.429	27977.61	226
358.002	27932.82	229.4
358.575	27888.18	226.1
359.148	27843.68	240
359.721	27799.32	232.9
360.294	27755.11	214.3
360.867	27711.03	240.8
361.440	27667.09	242.7
362.013	27623.30	206.5
362.586	27579.64	207.8
363.159	27536.11	209.8
363.733	27492.73	217.1
364.306	27449.48	220.6
364.879	27406.37	243.4
365.452	27363.39	248.2
366.025	27320.55	245
366.598	27277.84	232.3
367.171	27235.27	227.9
367.744	27192.83	230.5
368.317	27150.52	225.7
368.890	27108.34	227.7
369.463	27066.29	231.7
370.036	27024.37	225.5
370.609	26982.58	230.7
371.183	26940.93	234.4
371.756	26899.39	223.4
372.329	26857.99	242
372.902	26816.72	213.8
373.475	26775.57	238.4
374.048	26734.55	243.8
374.621	26693.65	240.6
375.194	26652.88	238.6
375.767	26612.23	234.1
376.340	26571.70	236.3
376.913	26531.30	221.9
377.486	26491.02	235.5
378.059	26450.87	247.2
378.632	26410.83	220.9
379.206	26370.92	234.4
379.779	26331.13	242.2
380.352	26291.45	240.7
380.925	26251.90	233.4
381.498	26212.47	231.7
382.071	26173.15	222.5
382.644	26133.95	234.8
383.217	26094.87	241.4
383.790	26055.90	251.1
384.363	26017.06	245.1
384.936	25978.32	226.3
385.509	25939.70	228.2
386.082	25901.20	226.8
386.656	25862.81	221
387.229	25824.54	232.6
387.802	25786.37	245.6
388.375	25748.32	247
388.948	25710.39	238.4
389.521	25672.56	232.8
390.094	25634.85	229.6
390.667	25597.24	235
391.240	25559.75	247.8
391.813	25522.36	252.4
392.386	25485.09	263.7
392.959	25447.92	251.2
393.532	25410.86	239.9
394.106	25373.91	223.7
394.679	25337.07	224.5
395.252	25300.33	282.9
395.825	25263.70	243.2
396.398	25227.18	246.9
396.971	25190.76	257.9
397.544	25154.45	245.2
398.117	25118.24	232.1
398.690	25082.13	260.7
399.263	25046.13	260.7
399.836	25010.24	258.7
400.409	24974.44	270.2
400.982	24938.75	251
401.556	24903.16	251.7
402.129	24867.67	245.2
402.702	24832.28	242
403.275	24796.99	259.2
403.848	24761.80	257.2
404.421	24726.71	242.7
404.994	24691.72	246.5
405.567	24656.83	266.1
406.140	24622.04	284.9
406.713	24587.35	287.4
407.286	24552.75	283.1
407.859	24518.25	294.9
408.432	24483.85	304.9
409.006	24449.55	300.2
409.579	24415.34	309
410.152	24381.22	324.2
410.725	24347.21	343.7
411.298	24313.28	352.1
411.871	24279.45	358.7
412.444	24245.72	383.2
413.017	24212.08	390.8
413.590	24178.53	405.2
414.163	24145.07	450
414.736	24111.71	469.1
415.309	24078.44	482.5
415.882	24045.26	520.8
416.456	24012.17	550.5
417.029	23979.17	594.6
417.602	23946.26	640.3
418.175	23913.45	705.9
418.748	23880.72	739.1
419.321	23848.08	782.3
419.894	23815.54	865.4
420.467	23783.08	926.4
421.040	23750.71	1013
421.613	23718.42	1104
422.186	23686.23	1209
422.759	23654.12	1317
423.332	23622.10	1414
423.906	23590.16	1529
424.479	23558.31	1670
425.052	23526.55	1802
425.625	23494.88	1943
426.198	23463.28	2109
426.771	23431.78	2269
427.344	23400.35	2451
427.917	23369.02	2660
428.490	23337.76	2854
429.063	23306.59	3081
429.636	23275.50	3340
430.209	23244.50	3593
430.782	23213.58	3884
431.355	23182.74	4201
431.929	23151.98	4538
432.502	23121.30	4885
433.075	23090.70	5263
433.648	23060.19	5717
434.221	23029.75	6189
434.794	22999.40	6713
435.367	22969.13	7236
435.940	22938.93	7906
436.513	22908.82	8548
437.086	22878.78	9332
437.659	22848.82	1.02E4
438.232	22818.94	1.116E4
438.805	22789.14	1.213E4
439.379	22759.42	1.318E4
439.952	22729.77	1.43E4
440.525	22700.20	1.55E4
441.098	22670.71	1.672E4
441.671	22641.29	1.788E4
442.244	22611.96	1.904E4
442.817	22582.69	2.016E4
443.390	22553.50	2.113E4
443.963	22524.39	2.184E4
444.536	22495.35	2.231E4
445.109	22466.39	2.27E4
445.682	22437.50	2.283E4
446.255	22408.69	2.253E4
446.829	22379.95	2.202E4
447.402	22351.28	2.126E4
447.975	22322.69	2.028E4
448.548	22294.17	1.917E4
449.121	22265.72	1.79E4
449.694	22237.35	1.658E4
450.267	22209.04	1.528E4
450.840	22180.81	1.4E4
451.413	22152.66	1.282E4
451.986	22124.57	1.179E4
452.559	22096.55	1.082E4
453.132	22068.61	1.003E4
453.705	22040.73	9352
454.279	22012.93	8773
454.852	21985.19	8297
455.425	21957.53	7902
455.998	21929.93	7609
456.571	21902.41	7338
457.144	21874.95	7111
457.717	21847.56	6842
458.290	21820.24	6607
458.863	21792.99	6385
459.436	21765.81	6147
460.009	21738.69	5868
460.582	21711.64	5607
461.155	21684.66	5353
461.729	21657.75	5056
462.302	21630.90	4771
462.875	21604.12	4468
463.448	21577.41	4173
464.021	21550.76	3875
464.594	21524.17	3583
465.167	21497.66	3315
465.740	21471.20	3035
466.313	21444.82	2808
466.886	21418.50	2621
467.459	21392.24	2427
468.032	21366.04	2267
468.605	21339.91	2123
469.179	21313.85	1985
469.752	21287.85	1860
470.325	21261.91	1771
470.898	21236.03	1687
471.471	21210.22	1607
472.044	21184.47	1542
472.617	21158.78	1487
473.190	21133.16	1438
473.763	21107.59	1385
474.336	21082.09	1310
474.909	21056.65	1238
475.482	21031.28	1215
476.055	21005.96	1181
476.628	20980.70	1117
477.202	20955.51	1072
477.775	20930.37	1020
478.348	20905.29	961.1
478.921	20880.28	915.3
479.494	20855.32	871.2
480.067	20830.43	829.3
480.640	20805.59	795.6
481.213	20780.81	732
481.786	20756.10	712.2
482.359	20731.44	689.3
482.932	20706.83	628.3
483.505	20682.29	593.3
484.078	20657.81	579.4
484.652	20633.38	561.1
485.225	20609.01	542.2
485.798	20584.70	497.1
486.371	20560.45	497.9
486.944	20536.25	467.2
487.517	20512.11	437.3
488.090	20488.02	429.2
488.663	20464.00	423.6
489.236	20440.03	448.9
489.809	20416.11	410.2
490.382	20392.25	399.5
490.955	20368.45	391.6
491.528	20344.70	385.1
492.102	20321.01	378.1
492.675	20297.37	378.7
493.248	20273.79	367
493.821	20250.26	362.1
494.394	20226.79	357.9
494.967	20203.37	352.6
495.540	20180.01	347.9
496.113	20156.69	341.2
496.686	20133.44	324.1
497.259	20110.23	321
497.832	20087.09	327.7
498.405	20063.99	312.7
498.978	20040.95	301.3
499.552	20017.95	298.9
500.125	19995.02	296.1
500.698	19972.13	295.1
501.271	19949.30	289.2
501.844	19926.52	289.9
502.417	19903.79	289
502.990	19881.11	277.9
503.563	19858.49	275.8
504.136	19835.91	279.7
504.709	19813.39	280.1
505.282	19790.92	278.2
505.855	19768.50	273.4
506.428	19746.13	268.6
507.002	19723.81	260.9
507.575	19701.54	265
508.148	19679.32	260.8
508.721	19657.15	250.8
509.294	19635.03	265.1
509.867	19612.96	259.8
510.440	19590.94	251.6
511.013	19568.97	272.7
511.586	19547.05	255.7
512.159	19525.18	251.6
512.732	19503.36	272
513.305	19481.58	256.4
513.878	19459.86	255.7
514.452	19438.18	251.7
515.025	19416.55	254
515.598	19394.97	238.2
516.171	19373.43	252.2
516.744	19351.95	236.7
517.317	19330.51	240.5
517.890	19309.12	242
518.463	19287.78	218.3
519.036	19266.48	256.8
519.609	19245.23	243.4
520.182	19224.03	240.7
520.755	19202.88	250.5
521.328	19181.77	259.3
521.902	19160.70	256
522.475	19139.69	258.4
523.048	19118.72	254.6
523.621	19097.79	243.1
524.194	19076.91	241.8
524.767	19056.08	230.6
525.340	19035.29	236.9
525.913	19014.55	241.8
526.486	18993.85	256.1
527.059	18973.20	246.6
527.632	18952.59	243.7
528.205	18932.03	253.4
528.778	18911.51	239.4
529.351	18891.04	253.5
529.925	18870.61	273.5
530.498	18850.22	280.7
531.071	18829.88	271.9
531.644	18809.59	247
532.217	18789.33	243.8
532.790	18769.12	253.2
533.363	18748.96	266
533.936	18728.83	262.8
534.509	18708.75	251
535.082	18688.72	260.7
535.655	18668.72	254.9
536.228	18648.77	258.8
536.801	18628.86	272.3
537.375	18608.99	275
537.948	18589.17	256.9
538.521	18569.39	243.3
539.094	18549.65	252
539.667	18529.95	258
540.240	18510.29	256.1
540.813	18490.68	259.7
541.386	18471.11	278.2
541.959	18451.57	253.9
542.532	18432.08	268.2
543.105	18412.63	265.4
543.678	18393.23	271.5
544.251	18373.86	259.6
544.825	18354.53	266.9
545.398	18335.25	283.4
545.971	18316.00	257.2
546.544	18296.80	234
547.117	18277.63	250.3
547.690	18258.51	282.1
548.263	18239.42	278
548.836	18220.38	267.9
549.409	18201.37	261
549.982	18182.41	248
550.555	18163.48	260.5
551.128	18144.59	244.6
551.701	18125.74	256.5
552.275	18106.94	242
552.848	18088.17	251
553.421	18069.44	261.5
553.994	18050.74	252.2
554.567	18032.09	253.8
555.140	18013.48	259.3
555.713	17994.90	253.1
556.286	17976.36	246.9
556.859	17957.86	234.8
557.432	17939.40	274
558.005	17920.98	253.5
558.578	17902.59	253.3
559.151	17884.24	248.2
559.725	17865.93	237.4
560.298	17847.66	239.7
560.871	17829.42	241.8
561.444	17811.22	242.4
562.017	17793.06	250.8
562.590	17774.94	252.2
563.163	17756.85	233.9
563.736	17738.80	255.4
564.309	17720.78	257.1
564.882	17702.81	243.5
565.455	17684.86	255.1
566.028	17666.96	250.9
566.601	17649.09	244.5
567.175	17631.26	241.6
567.748	17613.46	242.8
568.321	17595.70	240.5
568.894	17577.97	245.7
569.467	17560.29	242.2
570.040	17542.63	249.1
570.613	17525.01	254.6
571.186	17507.43	255.7
571.759	17489.88	251.3
572.332	17472.37	248.6
572.905	17454.89	261.1
573.478	17437.45	249.3
574.051	17420.04	246.7
574.625	17402.67	253
575.198	17385.33	245.6
575.771	17368.03	249.6
576.344	17350.76	244.9
576.917	17333.52	254.5
577.490	17316.32	273.4
578.063	17299.15	274.3
578.636	17282.02	262.2
579.209	17264.92	249.2
579.782	17247.86	264.3
580.355	17230.82	240.1
580.928	17213.83	247.7
581.501	17196.86	247.5
582.074	17179.93	247.4
582.648	17163.03	257.6
583.221	17146.17	248.3
583.794	17129.34	244.4
584.367	17112.54	242.2
584.940	17095.77	256
585.513	17079.04	269.6
586.086	17062.34	244.3
586.659	17045.67	211.3
587.232	17029.04	254
587.805	17012.44	256.9
588.378	16995.87	252.1
588.951	16979.33	261
589.524	16962.82	231.3
590.098	16946.35	250.6
590.671	16929.91	253.3
591.244	16913.50	253.7
591.817	16897.12	225.9
592.390	16880.78	279.7
592.963	16864.46	258.4
593.536	16848.18	239
594.109	16831.93	259.5
594.682	16815.71	246.4
595.255	16799.52	286.5
595.828	16783.36	213.3
596.401	16767.23	255.1
596.974	16751.14	245.2
597.548	16735.07	249.4
598.121	16719.04	247.4
598.694	16703.03	238.1
599.267	16687.06	235.9
599.840	16671.12	237.7
600.413	16655.20	257.6
600.986	16639.32	254.3
601.559	16623.47	241
602.132	16607.65	245.6
602.705	16591.86	265
603.278	16576.10	236.2
603.851	16560.37	222.5
604.424	16544.66	261.9
604.998	16528.99	232.9
605.571	16513.35	252.5
606.144	16497.74	237.6
606.717	16482.16	235.2
607.290	16466.60	250.4
607.863	16451.08	246.2
608.436	16435.58	239.5
609.009	16420.12	226.6
609.582	16404.68	223.9
610.155	16389.27	231.6
610.728	16373.89	238.9
611.301	16358.54	213.9
611.874	16343.22	237
612.448	16327.93	240.8
613.021	16312.67	266.6
613.594	16297.43	249
614.167	16282.22	233.3
614.740	16267.04	235.7
615.313	16251.89	250.2
615.886	16236.77	246.6
616.459	16221.68	237.3
617.032	16206.61	242.8
617.605	16191.57	261.4
618.178	16176.56	249.8
618.751	16161.58	247.3
619.324	16146.63	256.2
619.898	16131.70	262.4
620.471	16116.80	251.7
621.044	16101.93	246.2
621.617	16087.08	257.3
622.190	16072.27	247
622.763	16057.48	235.9
623.336	16042.71	233.6
623.909	16027.98	212.3
624.482	16013.27	222.1
625.055	15998.59	251.3
625.628	15983.93	252.9
626.201	15969.30	246.8
626.774	15954.70	267.8
627.348	15940.13	262.1
627.921	15925.58	265.2
628.494	15911.06	254.9
629.067	15896.56	249.4
629.640	15882.10	257.6
630.213	15867.65	270.3
630.786	15853.24	264
631.359	15838.85	258.9
631.932	15824.48	257.9
632.505	15810.15	247.8
633.078	15795.84	243.5
633.651	15781.55	249.1
634.224	15767.29	254.7
634.797	15753.06	255.7
635.371	15738.85	263.5
635.944	15724.66	265.6
636.517	15710.51	252.9
637.090	15696.37	249.5
637.663	15682.27	258.2
638.236	15668.19	273.6
638.809	15654.13	279.2
639.382	15640.10	268.1
639.955	15626.09	268.9
640.528	15612.11	276.5
641.101	15598.16	267.6
641.674	15584.23	254.5
642.247	15570.32	248.5
642.821	15556.44	248.9
643.394	15542.58	253.7
643.967	15528.75	267.6
644.540	15514.95	261.2
645.113	15501.16	250.5
645.686	15487.41	259.7
646.259	15473.67	253.1
646.832	15459.96	253.1
647.405	15446.28	254.7
647.978	15432.62	246.7
648.551	15418.98	251.3
649.124	15405.37	254.5
649.697	15391.78	251.7
650.271	15378.21	251.9
650.844	15364.67	251.9
651.417	15351.16	239.9
651.990	15337.66	236.5
652.563	15324.19	251.4
653.136	15310.75	254.7
653.709	15297.33	262.5
654.282	15283.93	260.6
654.855	15270.55	242.7
655.428	15257.20	249.7
656.001	15243.87	277.4
656.574	15230.57	268
657.147	15217.28	240.8
657.721	15204.03	247.3
658.294	15190.79	246.3
658.867	15177.58	240.4
659.440	15164.39	241.6
660.013	15151.22	251.8
660.586	15138.08	263.9
661.159	15124.96	244.5
661.732	15111.86	237.9
662.305	15098.78	236.1
662.878	15085.73	250.7
663.451	15072.70	252.5
664.024	15059.69	239.5
664.597	15046.70	249.8
665.171	15033.74	262
665.744	15020.80	254.7
666.317	15007.88	240.7
666.890	14994.98	239.1
667.463	14982.11	249.4
668.036	14969.26	245.9
668.609	14956.42	247.3
669.182	14943.62	237.1
669.755	14930.83	235.5
670.328	14918.07	246.9
670.901	14905.32	253
671.474	14892.60	254.2
672.047	14879.90	253.7
672.621	14867.22	258.4
673.194	14854.57	253.1
673.767	14841.93	244.5
674.340	14829.32	255.7
674.913	14816.73	263.2
675.486	14804.16	244.9
676.059	14791.61	243.8
676.632	14779.08	243.7
677.205	14766.57	242.5
