Wavelength [nm]	Wavenumbers [1/cm]	cis_azobenzene_epsilons
250.000	40000.00	9235
250.100	39984.01	9195
250.200	39968.03	9155
250.300	39952.06	9114
250.400	39936.10	9073
250.500	39920.16	9033
250.600	39904.23	8989
250.700	39888.31	8947
250.800	39872.41	8904
250.900	39856.52	8861
251.000	39840.64	8815
251.100	39824.77	8771
251.200	39808.92	8724
251.300	39793.08	8679
251.400	39777.25	8632
251.500	39761.43	8586
251.600	39745.63	8540
251.700	39729.84	8493
251.800	39714.06	8447
251.900	39698.29	8397
252.000	39682.54	8351
252.100	39666.80	8303
252.200	39651.07	8255
252.300	39635.35	8204
252.400	39619.65	8155
252.500	39603.96	8103
252.600	39588.28	8055
252.700	39572.62	8003
252.800	39556.96	7955
252.900	39541.32	7902
253.000	39525.69	7854
253.100	39510.08	7803
253.200	39494.47	7752
253.300	39478.88	7701
253.400	39463.30	7649
253.500	39447.73	7601
253.600	39432.18	7548
253.700	39416.63	7498
253.800	39401.10	7444
253.900	39385.58	7395
254.000	39370.08	7341
254.100	39354.58	7291
254.200	39339.10	7238
254.300	39323.63	7189
254.400	39308.18	7139
254.500	39292.73	7088
254.600	39277.30	7038
254.700	39261.88	6987
254.800	39246.47	6939
254.900	39231.07	6886
255.000	39215.69	6837
255.100	39200.31	6784
255.200	39184.95	6736
255.300	39169.60	6684
255.400	39154.27	6637
255.500	39138.94	6586
255.600	39123.63	6539
255.700	39108.33	6492
255.800	39093.04	6443
255.900	39077.76	6396
256.000	39062.50	6347
256.100	39047.25	6303
256.200	39032.01	6254
256.300	39016.78	6210
256.400	39001.56	6161
256.500	38986.35	6117
256.600	38971.16	6071
256.700	38955.98	6027
256.800	38940.81	5981
256.900	38925.65	5940
257.000	38910.51	5897
257.100	38895.37	5855
257.200	38880.25	5813
257.300	38865.14	5771
257.400	38850.04	5732
257.500	38834.95	5690
257.600	38819.88	5652
257.700	38804.81	5610
257.800	38789.76	5572
257.900	38774.72	5533
258.000	38759.69	5496
258.100	38744.67	5458
258.200	38729.67	5423
258.300	38714.67	5388
258.400	38699.69	5353
258.500	38684.72	5320
258.600	38669.76	5284
258.700	38654.81	5252
258.800	38639.88	5218
258.900	38624.95	5187
259.000	38610.04	5154
259.100	38595.14	5124
259.200	38580.25	5092
259.300	38565.37	5065
259.400	38550.50	5034
259.500	38535.65	5007
259.600	38520.80	4979
259.700	38505.97	4953
259.800	38491.15	4927
259.900	38476.34	4901
260.000	38461.54	4877
260.100	38446.75	4852
260.200	38431.98	4830
260.300	38417.21	4805
260.400	38402.46	4783
260.500	38387.72	4760
260.600	38372.99	4739
260.700	38358.27	4718
260.800	38343.56	4699
260.900	38328.86	4680
261.000	38314.18	4661
261.100	38299.50	4643
261.200	38284.84	4626
261.300	38270.19	4609
261.400	38255.55	4592
261.500	38240.92	4577
261.600	38226.30	4561
261.700	38211.69	4546
261.800	38197.10	4532
261.900	38182.51	4519
262.000	38167.94	4506
262.100	38153.38	4493
262.200	38138.83	4481
262.300	38124.29	4470
262.400	38109.76	4459
262.500	38095.24	4450
262.600	38080.73	4439
262.700	38066.24	4430
262.800	38051.75	4422
262.900	38037.28	4413
263.000	38022.81	4405
263.100	38008.36	4397
263.200	37993.92	4390
263.300	37979.49	4383
263.400	37965.07	4378
263.500	37950.66	4371
263.600	37936.27	4367
263.700	37921.88	4362
263.800	37907.51	4357
263.900	37893.14	4354
264.000	37878.79	4349
264.100	37864.45	4346
264.200	37850.11	4344
264.300	37835.79	4341
264.400	37821.48	4339
264.500	37807.18	4337
264.600	37792.89	4335
264.700	37778.62	4334
264.800	37764.35	4333
264.900	37750.09	4333
265.000	37735.85	4333
265.100	37721.61	4333
265.200	37707.39	4333
265.300	37693.18	4334
265.400	37678.98	4335
265.500	37664.78	4336
265.600	37650.60	4337
265.700	37636.43	4339
265.800	37622.27	4342
265.900	37608.12	4343
266.000	37593.98	4345
266.100	37579.86	4348
266.200	37565.74	4351
266.300	37551.63	4354
266.400	37537.54	4358
266.500	37523.45	4361
266.600	37509.38	4365
266.700	37495.31	4368
266.800	37481.26	4373
266.900	37467.22	4376
267.000	37453.18	4381
267.100	37439.16	4385
267.200	37425.15	4389
267.300	37411.15	4394
267.400	37397.16	4400
267.500	37383.18	4405
267.600	37369.21	4410
267.700	37355.25	4415
267.800	37341.30	4420
267.900	37327.36	4425
268.000	37313.43	4431
268.100	37299.52	4437
268.200	37285.61	4442
268.300	37271.71	4448
268.400	37257.82	4454
268.500	37243.95	4461
268.600	37230.08	4467
268.700	37216.23	4474
268.800	37202.38	4479
268.900	37188.55	4486
269.000	37174.72	4492
269.100	37160.91	4499
269.200	37147.10	4505
269.300	37133.31	4511
269.400	37119.52	4517
269.500	37105.75	4524
269.600	37091.99	4531
269.700	37078.24	4537
269.800	37064.49	4545
269.900	37050.76	4550
270.000	37037.04	4558
270.100	37023.32	4565
270.200	37009.62	4571
270.300	36995.93	4578
270.400	36982.25	4585
270.500	36968.58	4591
270.600	36954.92	4597
270.700	36941.26	4604
270.800	36927.62	4611
270.900	36913.99	4617
271.000	36900.37	4624
271.100	36886.76	4631
271.200	36873.16	4637
271.300	36859.57	4644
271.400	36845.98	4651
271.500	36832.41	4657
271.600	36818.85	4663
271.700	36805.30	4670
271.800	36791.76	4675
271.900	36778.23	4682
272.000	36764.71	4688
272.100	36751.19	4694
272.200	36737.69	4701
272.300	36724.20	4706
272.400	36710.72	4713
272.500	36697.25	4719
272.600	36683.79	4725
272.700	36670.33	4730
272.800	36656.89	4737
272.900	36643.46	4742
273.000	36630.04	4748
273.100	36616.62	4754
273.200	36603.22	4759
273.300	36589.83	4765
273.400	36576.44	4771
273.500	36563.07	4776
273.600	36549.71	4782
273.700	36536.35	4787
273.800	36523.01	4792
273.900	36509.68	4797
274.000	36496.35	4803
274.100	36483.04	4808
274.200	36469.73	4812
274.300	36456.43	4817
274.400	36443.15	4823
274.500	36429.87	4827
274.600	36416.61	4832
274.700	36403.35	4837
274.800	36390.10	4842
274.900	36376.86	4846
275.000	36363.64	4851
275.100	36350.42	4855
275.200	36337.21	4859
275.300	36324.01	4863
275.400	36310.82	4868
275.500	36297.64	4872
275.600	36284.47	4875
275.700	36271.31	4880
275.800	36258.16	4883
275.900	36245.02	4887
276.000	36231.88	4891
276.100	36218.76	4894
276.200	36205.65	4899
276.300	36192.54	4902
276.400	36179.45	4906
276.500	36166.37	4909
276.600	36153.29	4912
276.700	36140.22	4915
276.800	36127.17	4918
276.900	36114.12	4921
277.000	36101.08	4924
277.100	36088.05	4926
277.200	36075.04	4929
277.300	36062.03	4932
277.400	36049.03	4935
277.500	36036.04	4937
277.600	36023.05	4940
277.700	36010.08	4943
277.800	35997.12	4945
277.900	35984.17	4947
278.000	35971.22	4950
278.100	35958.29	4952
278.200	35945.36	4953
278.300	35932.45	4956
278.400	35919.54	4957
278.500	35906.64	4959
278.600	35893.75	4961
278.700	35880.88	4963
278.800	35868.01	4964
278.900	35855.15	4966
279.000	35842.29	4967
279.100	35829.45	4968
279.200	35816.62	4969
279.300	35803.80	4970
279.400	35790.98	4970
279.500	35778.18	4972
279.600	35765.38	4973
279.700	35752.59	4975
279.800	35739.81	4975
279.900	35727.05	4976
280.000	35714.29	4976
280.100	35701.54	4978
280.200	35688.79	4978
280.300	35676.06	4977
280.400	35663.34	4977
280.500	35650.62	4978
280.600	35637.92	4978
280.700	35625.22	4979
280.800	35612.54	4978
280.900	35599.86	4977
281.000	35587.19	4977
281.100	35574.53	4978
281.200	35561.88	4977
281.300	35549.24	4977
281.400	35536.60	4976
281.500	35523.98	4975
281.600	35511.36	4975
281.700	35498.76	4974
281.800	35486.16	4972
281.900	35473.57	4973
282.000	35460.99	4971
282.100	35448.42	4970
282.200	35435.86	4968
282.300	35423.31	4967
282.400	35410.76	4966
282.500	35398.23	4965
282.600	35385.70	4963
282.700	35373.19	4962
282.800	35360.68	4960
282.900	35348.18	4958
283.000	35335.69	4956
283.100	35323.21	4955
283.200	35310.73	4953
283.300	35298.27	4950
283.400	35285.82	4949
283.500	35273.37	4946
283.600	35260.93	4944
283.700	35248.50	4942
283.800	35236.08	4939
283.900	35223.67	4936
284.000	35211.27	4934
284.100	35198.87	4930
284.200	35186.49	4929
284.300	35174.11	4926
284.400	35161.74	4922
284.500	35149.38	4919
284.600	35137.03	4917
284.700	35124.69	4913
284.800	35112.36	4910
284.900	35100.04	4907
285.000	35087.72	4904
285.100	35075.41	4900
285.200	35063.11	4896
285.300	35050.82	4892
285.400	35038.54	4889
285.500	35026.27	4885
285.600	35014.01	4881
285.700	35001.75	4877
285.800	34989.50	4873
285.900	34977.26	4869
286.000	34965.03	4866
286.100	34952.81	4861
286.200	34940.60	4857
286.300	34928.40	4852
286.400	34916.20	4848
286.500	34904.01	4843
286.600	34891.84	4838
286.700	34879.67	4834
286.800	34867.50	4830
286.900	34855.35	4826
287.000	34843.21	4820
287.100	34831.07	4814
287.200	34818.94	4810
287.300	34806.82	4804
287.400	34794.71	4801
287.500	34782.61	4794
287.600	34770.51	4789
287.700	34758.43	4784
287.800	34746.35	4777
287.900	34734.28	4772
288.000	34722.22	4766
288.100	34710.17	4761
288.200	34698.13	4755
288.300	34686.09	4749
288.400	34674.06	4743
288.500	34662.05	4737
288.600	34650.03	4730
288.700	34638.03	4725
288.800	34626.04	4718
288.900	34614.05	4713
289.000	34602.08	4706
289.100	34590.11	4699
289.200	34578.15	4693
289.300	34566.19	4686
289.400	34554.25	4679
289.500	34542.31	4673
289.600	34530.39	4666
289.700	34518.47	4659
289.800	34506.56	4653
289.900	34494.65	4644
290.000	34482.76	4638
290.100	34470.87	4631
290.200	34458.99	4624
290.300	34447.12	4617
290.400	34435.26	4609
290.500	34423.41	4602
290.600	34411.56	4595
290.700	34399.72	4587
290.800	34387.90	4580
290.900	34376.07	4571
291.000	34364.26	4564
291.100	34352.46	4555
291.200	34340.66	4548
291.300	34328.87	4540
291.400	34317.09	4532
291.500	34305.32	4524
291.600	34293.55	4516
291.700	34281.80	4508
291.800	34270.05	4500
291.900	34258.31	4490
292.000	34246.58	4483
292.100	34234.85	4473
292.200	34223.13	4465
292.300	34211.43	4456
292.400	34199.73	4448
292.500	34188.03	4438
292.600	34176.35	4431
292.700	34164.67	4421
292.800	34153.01	4413
292.900	34141.35	4404
293.000	34129.69	4394
293.100	34118.05	4386
293.200	34106.41	4377
293.300	34094.78	4367
293.400	34083.16	4357
293.500	34071.55	4348
293.600	34059.95	4338
293.700	34048.35	4330
293.800	34036.76	4320
293.900	34025.18	4309
294.000	34013.61	4300
294.100	34002.04	4290
294.200	33990.48	4280
294.300	33978.93	4271
294.400	33967.39	4262
294.500	33955.86	4252
294.600	33944.33	4242
294.700	33932.81	4231
294.800	33921.30	4222
294.900	33909.80	4211
295.000	33898.31	4202
295.100	33886.82	4191
295.200	33875.34	4180
295.300	33863.87	4169
295.400	33852.40	4160
295.500	33840.95	4150
295.600	33829.50	4138
295.700	33818.06	4129
295.800	33806.63	4117
295.900	33795.20	4108
296.000	33783.78	4096
296.100	33772.37	4086
296.200	33760.97	4075
296.300	33749.58	4065
296.400	33738.19	4053
296.500	33726.81	4042
296.600	33715.44	4032
296.700	33704.08	4021
296.800	33692.72	4009
296.900	33681.37	3998
297.000	33670.03	3986
297.100	33658.70	3976
297.200	33647.38	3965
297.300	33636.06	3955
297.400	33624.75	3943
297.500	33613.45	3931
297.600	33602.15	3920
297.700	33590.86	3908
297.800	33579.58	3896
297.900	33568.31	3884
298.000	33557.05	3873
298.100	33545.79	3862
298.200	33534.54	3850
298.300	33523.30	3839
298.400	33512.06	3826
298.500	33500.84	3816
298.600	33489.62	3803
298.700	33478.41	3792
298.800	33467.20	3779
298.900	33456.01	3768
299.000	33444.82	3756
299.100	33433.63	3744
299.200	33422.46	3731
299.300	33411.29	3720
299.400	33400.13	3709
299.500	33388.98	3695
299.600	33377.84	3684
299.700	33366.70	3671
299.800	33355.57	3659
299.900	33344.45	3647
300.000	33333.33	3635
300.100	33322.23	3623
300.200	33311.13	3610
300.300	33300.03	3598
300.400	33288.95	3585
300.500	33277.87	3574
300.600	33266.80	3560
300.700	33255.74	3548
300.800	33244.68	3537
300.900	33233.63	3525
301.000	33222.59	3512
301.100	33211.56	3500
301.200	33200.53	3487
301.300	33189.51	3475
301.400	33178.50	3462
301.500	33167.50	3449
301.600	33156.50	3436
301.700	33145.51	3424
301.800	33134.53	3411
301.900	33123.55	3399
302.000	33112.58	3385
302.100	33101.62	3373
302.200	33090.67	3361
302.300	33079.72	3349
302.400	33068.78	3336
302.500	33057.85	3324
302.600	33046.93	3311
302.700	33036.01	3298
302.800	33025.10	3285
302.900	33014.20	3273
303.000	33003.30	3260
303.100	32992.41	3247
303.200	32981.53	3234
303.300	32970.66	3222
303.400	32959.79	3210
303.500	32948.93	3197
303.600	32938.08	3183
303.700	32927.23	3171
303.800	32916.39	3158
303.900	32905.56	3147
304.000	32894.74	3133
304.100	32883.92	3120
304.200	32873.11	3108
304.300	32862.31	3095
304.400	32851.51	3082
304.500	32840.72	3069
304.600	32829.94	3056
304.700	32819.17	3044
304.800	32808.40	3031
304.900	32797.64	3018
305.000	32786.89	3005
305.100	32776.14	2992
305.200	32765.40	2981
305.300	32754.67	2968
305.400	32743.94	2955
305.500	32733.22	2940
305.600	32722.51	2928
305.700	32711.81	2915
305.800	32701.11	2902
305.900	32690.42	2890
306.000	32679.74	2876
306.100	32669.06	2864
306.200	32658.39	2852
306.300	32647.73	2838
306.400	32637.08	2826
306.500	32626.43	2814
306.600	32615.79	2800
306.700	32605.15	2788
306.800	32594.52	2775
306.900	32583.90	2763
307.000	32573.29	2749
307.100	32562.68	2737
307.200	32552.08	2724
307.300	32541.49	2711
307.400	32530.90	2699
307.500	32520.33	2686
307.600	32509.75	2675
307.700	32499.19	2662
307.800	32488.63	2648
307.900	32478.08	2636
308.000	32467.53	2624
308.100	32456.99	2612
308.200	32446.46	2598
308.300	32435.94	2585
308.400	32425.42	2572
308.500	32414.91	2560
308.600	32404.41	2547
308.700	32393.91	2535
308.800	32383.42	2523
308.900	32372.94	2509
309.000	32362.46	2497
309.100	32351.99	2486
309.200	32341.53	2472
309.300	32331.07	2460
309.400	32320.62	2447
309.500	32310.18	2437
309.600	32299.74	2423
309.700	32289.31	2411
309.800	32278.89	2398
309.900	32268.47	2387
310.000	32258.06	2373
310.100	32247.66	2361
310.200	32237.27	2349
310.300	32226.88	2338
310.400	32216.49	2325
310.500	32206.12	2313
310.600	32195.75	2301
310.700	32185.39	2289
310.800	32175.03	2277
310.900	32164.68	2264
311.000	32154.34	2252
311.100	32144.01	2239
311.200	32133.68	2227
311.300	32123.35	2216
311.400	32113.04	2203
311.500	32102.73	2191
311.600	32092.43	2179
311.700	32082.13	2168
311.800	32071.84	2156
311.900	32061.56	2146
312.000	32051.28	2133
312.100	32041.01	2122
312.200	32030.75	2108
312.300	32020.49	2098
312.400	32010.24	2085
312.500	32000.00	2073
312.600	31989.76	2062
312.700	31979.53	2050
312.800	31969.31	2039
312.900	31959.09	2028
313.000	31948.88	2016
313.100	31938.68	2004
313.200	31928.48	1994
313.300	31918.29	1982
313.400	31908.10	1971
313.500	31897.93	1959
313.600	31887.76	1947
313.700	31877.59	1935
313.800	31867.43	1924
313.900	31857.28	1913
314.000	31847.13	1901
314.100	31836.99	1890
314.200	31826.86	1879
314.300	31816.74	1868
314.400	31806.62	1857
314.500	31796.50	1846
314.600	31786.40	1835
314.700	31776.29	1824
314.800	31766.20	1812
314.900	31756.11	1802
315.000	31746.03	1790
315.100	31735.96	1779
315.200	31725.89	1769
315.300	31715.83	1758
315.400	31705.77	1747
315.500	31695.72	1736
315.600	31685.68	1725
315.700	31675.64	1715
315.800	31665.61	1705
315.900	31655.59	1694
316.000	31645.57	1682
316.100	31635.56	1671
316.200	31625.55	1661
316.300	31615.55	1651
316.400	31605.56	1640
316.500	31595.58	1630
316.600	31585.60	1620
316.700	31575.62	1610
316.800	31565.66	1599
316.900	31555.70	1588
317.000	31545.74	1579
317.100	31535.79	1569
317.200	31525.85	1559
317.300	31515.92	1549
317.400	31505.99	1538
317.500	31496.06	1528
317.600	31486.15	1517
317.700	31476.24	1507
317.800	31466.33	1496
317.900	31456.43	1487
318.000	31446.54	1477
318.100	31436.66	1466
318.200	31426.78	1457
318.300	31416.90	1448
318.400	31407.04	1439
318.500	31397.17	1429
318.600	31387.32	1419
318.700	31377.47	1410
318.800	31367.63	1400
318.900	31357.79	1390
319.000	31347.96	1382
319.100	31338.14	1371
319.200	31328.32	1362
319.300	31318.51	1352
319.400	31308.70	1342
319.500	31298.90	1332
319.600	31289.11	1324
319.700	31279.32	1314
319.800	31269.54	1305
319.900	31259.77	1296
320.000	31250.00	1287
320.100	31240.24	1278
320.200	31230.48	1268
320.300	31220.73	1260
320.400	31210.99	1249
320.500	31201.25	1241
320.600	31191.52	1234
320.700	31181.79	1223
320.800	31172.07	1215
320.900	31162.36	1205
321.000	31152.65	1197
321.100	31142.95	1188
321.200	31133.25	1180
321.300	31123.56	1170
321.400	31113.88	1162
321.500	31104.20	1152
321.600	31094.53	1145
321.700	31084.86	1136
321.800	31075.20	1127
321.900	31065.55	1118
322.000	31055.90	1110
322.100	31046.26	1103
322.200	31036.62	1092
322.300	31026.99	1087
322.400	31017.37	1078
322.500	31007.75	1069
322.600	30998.14	1060
322.700	30988.53	1054
322.800	30978.93	1044
322.900	30969.34	1036
323.000	30959.75	1028
323.100	30950.17	1020
323.200	30940.59	1013
323.300	30931.02	1005
323.400	30921.46	996.9
323.500	30911.90	989.1
323.600	30902.35	982.2
323.700	30892.80	973.7
323.800	30883.26	967
323.900	30873.73	958.5
324.000	30864.20	950.3
324.100	30854.67	941.7
324.200	30845.16	935.3
324.300	30835.65	926.7
324.400	30826.14	920.2
324.500	30816.64	912.9
324.600	30807.15	905.3
324.700	30797.66	898.5
324.800	30788.18	890.7
324.900	30778.70	883.7
325.000	30769.23	876.2
325.100	30759.77	868.9
325.200	30750.31	861.3
325.300	30740.85	854.1
325.400	30731.41	847.8
325.500	30721.97	840.9
325.600	30712.53	833
325.700	30703.10	825.5
325.800	30693.68	819.2
325.900	30684.26	812.6
326.000	30674.85	805.4
326.100	30665.44	797.8
326.200	30656.04	791.8
326.300	30646.64	786.2
326.400	30637.25	779.5
326.500	30627.87	771.4
326.600	30618.49	766.7
326.700	30609.12	757.2
326.800	30599.76	753.6
326.900	30590.39	746
327.000	30581.04	740.4
327.100	30571.69	733
327.200	30562.35	726
327.300	30553.01	719.8
327.400	30543.68	713
327.500	30534.35	707.6
327.600	30525.03	700.5
327.700	30515.72	695.8
327.800	30506.41	689.9
327.900	30497.10	682.8
328.000	30487.80	677.5
328.100	30478.51	670.8
328.200	30469.23	663.7
328.300	30459.95	658.7
328.400	30450.67	652.3
328.500	30441.40	646.2
328.600	30432.14	641.2
328.700	30422.88	634.6
328.800	30413.63	630.1
328.900	30404.38	622.5
329.000	30395.14	619
329.100	30385.90	611
329.200	30376.67	605.9
329.300	30367.45	600.7
329.400	30358.23	594.8
329.500	30349.01	588.7
329.600	30339.81	583.9
329.700	30330.60	577.2
329.800	30321.41	571.8
329.900	30312.22	567.7
330.000	30303.03	562.2
330.100	30293.85	557
330.200	30284.68	552
330.300	30275.51	546.7
330.400	30266.34	540.4
330.500	30257.19	536.5
330.600	30248.03	530.2
330.700	30238.89	525.4
330.800	30229.75	520.8
330.900	30220.61	515.9
331.000	30211.48	510.3
331.100	30202.36	505
331.200	30193.24	500.8
331.300	30184.12	496
331.400	30175.02	490.8
331.500	30165.91	484.7
331.600	30156.82	481.5
331.700	30147.72	476.4
331.800	30138.64	472.5
331.900	30129.56	466.4
332.000	30120.48	462.2
332.100	30111.41	457.9
332.200	30102.35	454.6
332.300	30093.29	448.2
332.400	30084.24	443.9
332.500	30075.19	439
332.600	30066.15	436.3
332.700	30057.11	430.7
332.800	30048.08	427
332.900	30039.05	421.9
333.000	30030.03	418.1
333.100	30021.01	415.6
333.200	30012.00	410.6
333.300	30003.00	406.4
333.400	29994.00	401.8
333.500	29985.01	398.9
333.600	29976.02	393.8
333.700	29967.04	389.6
333.800	29958.06	385.2
333.900	29949.09	382.5
334.000	29940.12	378.2
334.100	29931.16	374.1
334.200	29922.20	371.1
334.300	29913.25	367.2
334.400	29904.31	363.1
334.500	29895.37	358.8
334.600	29886.43	355.3
334.700	29877.50	352.3
334.800	29868.58	347.8
334.900	29859.66	344
335.000	29850.75	340.2
335.100	29841.84	335.3
335.200	29832.94	333.4
335.300	29824.04	329
335.400	29815.15	326.5
335.500	29806.26	321.9
335.600	29797.38	319.9
335.700	29788.50	315.2
335.800	29779.63	312.1
335.900	29770.77	309.5
336.000	29761.90	306.2
336.100	29753.05	303.9
336.200	29744.20	299.2
336.300	29735.36	296.8
336.400	29726.52	293.2
336.500	29717.68	290.6
336.600	29708.85	286.9
336.700	29700.03	283.3
336.800	29691.21	280.7
336.900	29682.40	278.5
337.000	29673.59	275.7
337.100	29664.79	271.8
337.200	29655.99	269.1
337.300	29647.20	265.4
337.400	29638.41	262.8
337.500	29629.63	259.1
337.600	29620.85	256.9
337.700	29612.08	253.5
337.800	29603.32	251.1
337.900	29594.55	248.8
338.000	29585.80	245.1
338.100	29577.05	243.4
338.200	29568.30	240.4
338.300	29559.56	238.2
338.400	29550.83	235.3
338.500	29542.10	232.4
338.600	29533.37	229.2
338.700	29524.65	227.7
338.800	29515.94	225.6
338.900	29507.23	222
339.000	29498.53	218.7
339.100	29489.83	217.4
339.200	29481.13	214.7
339.300	29472.44	213.6
339.400	29463.76	211.4
339.500	29455.08	207.3
339.600	29446.41	205.5
339.700	29437.74	203.6
339.800	29429.08	201.8
339.900	29420.42	198.9
